UTC_Time(s)    Ra(hr)  Dec(deg)   Az(deg)   El(deg)        YY1        XX1 Cal   Sweeps Sweeps2
67389.660000   9.88771    7.9267  201.3210   57.5418    28.8636    77.6042  -1    0  0 
67389.760663   9.88774    7.9267  201.3210   57.5418     4.0626    49.4169   1    0  0 
67389.861327   9.88777    7.9266  201.3210   57.5417     4.0662    49.4197   1    0  0 
67389.961990   9.88780    7.9266  201.3210   57.5417     4.0710    49.3827   1    0  0 
67390.062653   9.88783    7.9265  201.3210   57.5416     4.0663    49.3979   1    0  0 
67390.163316   9.88785    7.9265  201.3210   57.5416     4.0713    49.3691   1    0  0 
67390.263980   9.88788    7.9264  201.3210   57.5415     4.0668    49.3759   1    0  0 
67390.364643   9.88791    7.9264  201.3210   57.5415     4.0537    49.3773   1    0  0 
67390.465306   9.88794    7.9264  201.3210   57.5415     4.0642    49.3541   1    0  0 
67390.565970   9.88781    7.9285  201.3263   57.5429     4.0634    49.4053   1    0  0 
67390.666633   9.88780    7.9290  201.3275   57.5431     4.0667    49.4395   1    0  0 
67390.767296   9.88779    7.9294  201.3286   57.5434     4.0611    49.3718   1    0  0 
67390.867960   9.88779    7.9299  201.3298   57.5437     4.0704    49.4470   1    0  0 
67390.968623   9.88778    7.9303  201.3310   57.5440     4.0626    49.3950   1    0  0 
67391.069286   9.88670    7.9300  201.3603   57.5388     4.0655    49.4700   1    0  0 
67391.169949   9.88629    7.9301  201.3719   57.5370     4.0573    49.5027   1    0  0 
67391.270613   9.88588    7.9303  201.3836   57.5353     4.0692    49.4452   1    0  0 
67391.371276   9.88547    7.9304  201.3953   57.5335     4.0686    49.4262   1    0  0 
67391.471939   9.88507    7.9306  201.4070   57.5317     4.0630    49.4060   1    0  0 
67391.572603   9.88466    7.9307  201.4187   57.5300     4.0692    49.4299   1    0  0 
67391.673266   9.88425    7.9309  201.4304   57.5282     4.0683    49.4550   1    0  0 
67391.773929   9.88533    7.9297  201.4018   57.5317     4.0700    49.4186   1    0  0 
67391.874593   9.88528    7.9296  201.4036   57.5312     4.0672    49.4348   1    0  0 
67391.975256   9.88523    7.9294  201.4055   57.5307     4.0751    49.4259   1    0  0 
67392.075919   9.88518    7.9292  201.4074   57.5302     4.0762    49.3427   1    0  0 
67392.176583   9.88514    7.9291  201.4093   57.5297     4.0725    49.3853   1    0  0 
67392.277246   9.88522    7.9278  201.4074   57.5287     4.0771    49.4454   1    0  0 
67392.377909   9.88521    7.9272  201.4079   57.5281     4.0716    49.3893   1    0  0 
67392.478572   9.88521    7.9267  201.4084   57.5274     4.0719    49.3821   1    0  0 
67392.579236   9.88521    7.9261  201.4088   57.5267     4.0752    49.3795   1    0  0 
67392.679899   9.88521    7.9255  201.4093   57.5260     4.0727    49.4692   1    0  0 
67392.780562   9.88521    7.9250  201.4098   57.5254     4.0681    49.3918   1    0  0 
67392.881226   9.88521    7.9244  201.4103   57.5247     4.0702    49.3811   1    0  0 
67392.981889   9.88533    7.9256  201.4084   57.5263     4.0753    49.3796   1    0  0 
67393.082552   9.88536    7.9255  201.4083   57.5262     4.0714    49.4150   1    0  0 
67393.183216   9.88539    7.9254  201.4081   57.5261     4.0781    49.3742   1    0  0 
67393.283879   9.88542    7.9254  201.4079   57.5261     4.0751    49.3745   1    0  0 
67393.384542   9.88545    7.9253  201.4078   57.5260     4.0705    49.3783   1    0  0 
67393.485205   9.88547    7.9253  201.4080   57.5260     4.0791    49.4191   1    0  0 
67393.585869   9.88550    7.9252  201.4080   57.5259     4.0662    49.4074   1    0  0 
67393.686532   9.88552    7.9252  201.4080   57.5259     4.0615    40.0648  -1    0  0 
67393.787195   9.88555    7.9251  201.4080   57.5258     4.0700    39.0134   0    0  0 
67393.887859   9.88558    7.9251  201.4080   57.5258     4.0696    38.9814   0    0  0 
67393.988522   9.88560    7.9250  201.4080   57.5257     4.0704    38.9706   0    0  0 
67394.089185   9.88563    7.9250  201.4080   57.5257     4.0746    38.9749   0    0  0 
67394.189849   9.88572    7.9251  201.4067   57.5260     4.0667    38.9623   0    0  0 
67394.290512   9.88576    7.9251  201.4063   57.5261     4.0616    38.9424   0    0  0 
67394.391175   9.88580    7.9251  201.4059   57.5261     4.0699    38.9364   0    0  0 
67394.491839   9.88585    7.9251  201.4055   57.5262     4.0680    38.9255   0    0  0 
67394.592502   9.88589    7.9250  201.4051   57.5262     4.0600    38.9721   0    0  0 
67394.693165   9.88592    7.9249  201.4050   57.5261     4.0649    38.9767   0    0  0 
67394.793828   9.88595    7.9248  201.4047   57.5260     4.0620    38.9631   0    0  0 
67394.894492   9.88599    7.9248  201.4045   57.5260     4.0706    38.9614   0    0  0 
67394.995155   9.88603    7.9247  201.4042   57.5260     4.0694    38.9745   0    0  0 
67395.095818   9.88607    7.9246  201.4039   57.5260     4.0700    38.9414   0    0  0 
67395.196482   9.88611    7.9246  201.4036   57.5260     4.0649    39.0158   0    0  0 
67395.297145   9.88614    7.9245  201.4033   57.5260     4.0701    38.9516   0    0  0 
67395.397808   9.88617    7.9247  201.4034   57.5262     4.0643    38.9622   0    0  0 
67395.498472   9.88620    7.9248  201.4032   57.5262     4.0652    38.9437   0    0  0 
67395.599135   9.88624    7.9248  201.4030   57.5263     4.0611    38.9155   0    0  0 
67395.699798   9.88627    7.9248  201.4028   57.5263     4.0678    39.0010   0    0  0 
67395.800461   9.88630    7.9248  201.4027   57.5264     4.0663    38.9318   0    0  0 
67395.901125   9.88634    7.9249  201.4025   57.5265     4.0694    38.9634   0    0  0 
67396.001788   9.88638    7.9250  201.4024   57.5266     4.0655    38.9320   0    0  0 
67396.102451   9.88642    7.9250  201.4022   57.5267     4.0737    38.9420   0    0  0 
67396.203115   9.88645    7.9251  201.4021   57.5268     4.0649    38.9911   0    0  0 
67396.303778   9.88649    7.9251  201.4019   57.5268     4.0669    38.9792   0    0  0 
67396.404441   9.88653    7.9252  201.4018   57.5269     4.0640    38.9647   0    0  0 
67396.505105   9.88656    7.9252  201.4016   57.5270     4.0631    38.9671   0    0  0 
67396.605768   9.88657    7.9252  201.4020   57.5269     4.0568    38.9417   0    0  0 
67396.706431   9.88659    7.9253  201.4020   57.5270     4.0681    38.9541   0    0  0 
67396.807094   9.88662    7.9253  201.4020   57.5270     4.0600    38.9163   0    0  0 
67396.907757   9.88665    7.9253  201.4020   57.5270     4.0668    38.9570   0    0  0 
67397.008420   9.88668    7.9254  201.4020   57.5271     4.0592    38.9475   0    0  0 
67397.109084   9.88671    7.9257  201.4020   57.5274     4.0697    38.9388   0    0  0 
67397.209747   9.88674    7.9258  201.4020   57.5275     4.0628    38.9786   0    0  0 
67397.310410   9.88677    7.9259  201.4020   57.5276     4.0564    38.9704   0    0  0 
67397.411074   9.88681    7.9260  201.4020   57.5278     4.0648    38.9708   0    0  0 
67397.511737   9.88684    7.9262  201.4020   57.5279     4.0621    38.9838   0    0  0 
67397.612400   9.88687    7.9263  201.4020   57.5280     4.0612    38.9585   0    0  0 
67397.713064   9.88690    7.9264  201.4020   57.5281     4.0598    38.9386   0    0  0 
67397.813727   9.88694    7.9260  201.4013   57.5278     4.0540    38.9330   0    0  0 
67397.914390   9.88697    7.9260  201.4012   57.5279     4.0620    38.9215   0    0  0 
67398.015054   9.88701    7.9260  201.4011   57.5279     4.0645    38.9554   0    0  0 
67398.115717   9.88704    7.9260  201.4009   57.5279     4.0649    38.9314   0    0  0 
67398.216380   9.88708    7.9260  201.4008   57.5279     4.0584    38.9827   0    0  0 
67398.317043   9.88710    7.9261  201.4010   57.5280     4.0680    38.9376   0    0  0 
67398.417707   9.88713    7.9262  201.4010   57.5281     4.0630    38.9431   0    0  0 
67398.518370   9.88716    7.9263  201.4010   57.5282     4.0642    38.9265   0    0  0 
67398.619033   9.88719    7.9263  201.4010   57.5282     4.0628    38.9197   0    0  0 
67398.719697   9.88722    7.9264  201.4010   57.5283     4.0662    38.9338   0    0  0 
67398.820360   9.88725    7.9264  201.4010   57.5283     4.0692    38.9335   0    0  0 
67398.921023   9.88728    7.9265  201.4010   57.5284     4.0706    38.8915   0    0  0 
67399.021687   9.88730    7.9263  201.4010   57.5282     4.0680    38.9780   0    0  0 
67399.122350   9.88733    7.9263  201.4010   57.5282     4.0680    38.9615   0    0  0 
67399.223013   9.88735    7.9263  201.4010   57.5282     4.0733    38.9821   0    0  0 
67399.323676   9.88738    7.9263  201.4010   57.5282     4.0652    38.9949   0    0  0 
67399.424340   9.88741    7.9263  201.4010   57.5282     4.0695    38.9586   0    0  0 
67399.525003   9.88744    7.9264  201.4010   57.5283     4.0707    38.9906   0    0  0 
67399.596306   9.88746    7.9264  201.4010   57.5283     4.0598    38.8905   0    0  0 
67399.617278   9.88747    7.9264  201.4010   57.5283     4.0616    38.9278   0    0  0 
67399.638249   9.88747    7.9264  201.4010   57.5283     4.0476    38.9156   0    0  0 
67399.659221   9.88748    7.9264  201.4010   57.5283     4.0616    38.9074   0    0  0 
67399.680192   9.88749    7.9264  201.4010   57.5283     4.0622    38.9101   0    0  0 
67399.701164   9.88749    7.9264  201.4010   57.5283     4.0530    38.8571   0    0  0 
67399.722135   9.88750    7.9265  201.4010   57.5284     4.0616    38.8980   0    0  0 
67399.743107   9.88751    7.9265  201.4010   57.5284     4.0756    39.0311   0    0  0 
67399.764078   9.88751    7.9265  201.4010   57.5284     4.0738    38.9663   0    0  0 
67399.785050   9.88752    7.9265  201.4010   57.5284     4.0622    39.0005   0    0  0 
67399.806021   9.88752    7.9265  201.4010   57.5284     4.0756    38.9251   0    0  0 
67399.826993   9.88753    7.9265  201.4010   57.5284     4.0683    39.1529   0    0  0 
67399.847965   9.88754    7.9265  201.4010   57.5284     4.0659    39.0036   0    0  0 
67399.868936   9.88754    7.9265  201.4010   57.5284     4.0787    39.0111   0    0  0 
67399.889908   9.88755    7.9265  201.4010   57.5284     4.0561    38.9824   0    0  0 
67399.910879   9.88756    7.9265  201.4010   57.5284     4.0713    38.9899   0    0  0 
67399.931851   9.88756    7.9265  201.4010   57.5284     4.0707    38.9855   0    0  0 
67399.952822   9.88757    7.9265  201.4010   57.5284     4.0567    38.9443   0    0  0 
67399.973794   9.88757    7.9265  201.4010   57.5284     4.0646    38.9588   0    0  0 
67399.994765   9.88758    7.9265  201.4010   57.5284     4.0665    38.9207   0    0  0 
67400.015737   9.88759    7.9266  201.4010   57.5285     4.0768    38.9196   0    0  0 
67400.036708   9.88759    7.9266  201.4010   57.5285     4.0500    38.9015   0    0  0 
67400.057680   9.88760    7.9266  201.4010   57.5285     4.0738    38.9584   0    0  0 
67400.078651   9.88760    7.9266  201.4010   57.5285     4.0537    39.2550   0    0  0 
67400.099623   9.88761    7.9266  201.4010   57.5285     4.0774    38.9066   0    0  0 
67400.120594   9.88762    7.9266  201.4010   57.5285     4.0689    38.9294   0    0  0 
67400.141566   9.88762    7.9266  201.4010   57.5285     4.0610    38.9581   0    0  0 
67400.162537   9.88763    7.9266  201.4010   57.5285     4.0622    38.8654   0    0  0 
67400.183509   9.88764    7.9266  201.4010   57.5285     4.0738    38.9930   0    0  0 
67400.204480   9.88764    7.9266  201.4010   57.5285     4.0768    38.9855   0    0  0 
67400.225452   9.88765    7.9266  201.4010   57.5285     4.0598    38.9981   0    0  0 
67400.246423   9.88765    7.9265  201.4010   57.5284     4.0689    38.9765   0    0  0 
67400.267395   9.88765    7.9265  201.4010   57.5284     4.0768    38.9494   0    0  0 
67400.288366   9.88766    7.9265  201.4010   57.5284     4.0683    38.9950   0    0  0 
67400.309338   9.88767    7.9265  201.4010   57.5284     4.0695    38.9950   0    0  0 
67400.330310   9.88767    7.9265  201.4010   57.5284     4.0726    39.2397   0    0  0 
67400.351281   9.88768    7.9265  201.4010   57.5284     4.0841    38.9431   0    0  0 
67400.372253   9.88768    7.9265  201.4010   57.5284     4.0616    38.9388   0    0  0 
67400.393224   9.88769    7.9265  201.4010   57.5284     4.0598    38.9188   0    0  0 
67400.414196   9.88770    7.9265  201.4010   57.5284     4.0622    38.8866   0    0  0 
67400.435167   9.88770    7.9265  201.4010   57.5284     4.0732    38.9439   0    0  0 
67400.456139   9.88771    7.9265  201.4010   57.5284     4.0634    38.9510   0    0  0 
67400.477110   9.88771    7.9265  201.4010   57.5284     4.0713    38.9451   0    0  0 
67400.498082   9.88772    7.9265  201.4010   57.5284     4.0909    38.9734   0    0  0 
67400.519053   9.88772    7.9265  201.4010   57.5284     4.0616    38.9584   0    0  1 
67400.540025   9.88773    7.9265  201.4010   57.5284     4.0707    38.9526   0    0  1 
67400.560996   9.88774    7.9265  201.4010   57.5284     4.0750    38.9718   0    0  1 
67400.581968   9.88774    7.9265  201.4010   57.5284     4.0756    38.9848   0    0  1 
67400.602939   9.88775    7.9265  201.4010   57.5284     4.0720    38.8167   0    0  1 
67400.623911   9.88775    7.9265  201.4010   57.5284     4.0732    38.8984   0    0  1 
67400.644882   9.88776    7.9265  201.4010   57.5284     4.0634    38.9313   0    0  1 
67400.665854   9.88777    7.9265  201.4010   57.5284     4.0610    38.9761   0    0  1 
67400.686825   9.88777    7.9265  201.4010   57.5284     4.0652    38.9561   0    0  1 
67400.707797   9.88778    7.9265  201.4010   57.5284     4.0598    38.9353   0    0  1 
67400.728768   9.88778    7.9265  201.4010   57.5284     4.0811    38.9223   0    0  1 
67400.749740   9.88779    7.9265  201.4010   57.5284     4.0659    38.9840   0    0  1 
67400.770711   9.88779    7.9265  201.4010   57.5284     4.0726    38.9294   0    0  1 
67400.791683   9.88780    7.9265  201.4010   57.5284     4.0591    38.9278   0    0  1 
67400.812655   9.88780    7.9265  201.4010   57.5284     4.0665    38.9270   0    0  1 
67400.833626   9.88781    7.9265  201.4010   57.5284     4.0652    39.2852   0    0  1 
67400.854598   9.88782    7.9265  201.4010   57.5284     4.0640    38.9404   0    0  1 
67400.875569   9.88782    7.9265  201.4010   57.5284     4.0768    38.9282   0    0  1 
67400.896541   9.88783    7.9265  201.4010   57.5284     4.0732    38.9942   0    0  1 
67400.917512   9.88783    7.9265  201.4010   57.5284     4.0677    38.9592   0    0  1 
67400.938484   9.88784    7.9265  201.4010   57.5284     4.0634    38.9219   0    0  1 
67400.959455   9.88785    7.9265  201.4010   57.5284     4.0677    38.8359   0    0  1 
67400.980427   9.88785    7.9265  201.4010   57.5284     4.0793    38.9086   0    0  1 
67401.001398   9.88786    7.9265  201.4010   57.5284     4.0616    38.8697   0    0  1 
67401.022370   9.88786    7.9265  201.4010   57.5284     4.0750    38.9412   0    0  1 
67401.043341   9.88787    7.9265  201.4010   57.5284     4.0799    38.9278   0    0  1 
67401.064313   9.88787    7.9265  201.4010   57.5284     4.0787    38.9420   0    0  1 
67401.085284   9.88788    7.9265  201.4010   57.5284     4.0634    39.2471   0    0  1 
67401.106256   9.88789    7.9265  201.4010   57.5284     4.0695    39.0154   0    0  1 
67401.127227   9.88789    7.9265  201.4010   57.5284     4.0805    38.9227   0    0  1 
67401.148199   9.88790    7.9265  201.4010   57.5284     4.0561    38.9321   0    0  1 
67401.169170   9.88790    7.9265  201.4010   57.5284     4.0701    38.9317   0    0  1 
67401.190142   9.88791    7.9265  201.4010   57.5284     4.0780    38.9188   0    0  1 
67401.211113   9.88791    7.9265  201.4010   57.5284     4.0695    38.9604   0    0  1 
67401.232085   9.88792    7.9265  201.4010   57.5284     4.0817    38.9510   0    0  1 
67401.253056   9.88793    7.9265  201.4010   57.5284     4.0701    38.9922   0    0  1 
67401.274028   9.88793    7.9265  201.4010   57.5284     4.0652    38.9836   0    0  1 
67401.295000   9.88794    7.9265  201.4010   57.5284     4.0854    38.9455   0    0  1 
67401.315971   9.88794    7.9265  201.4010   57.5284     4.0793    38.9376   0    0  1 
67401.336943   9.88795    7.9265  201.4010   57.5284     4.0701    39.1140   0    0  1 
67401.357914   9.88795    7.9265  201.4010   57.5284     4.0768    38.9910   0    0  1 
67401.378886   9.88796    7.9265  201.4010   57.5284     4.0695    39.0130   0    0  1 
67401.399857   9.88797    7.9265  201.4010   57.5284     4.0744    39.0013   0    0  1 
67401.420829   9.88797    7.9265  201.4010   57.5284     4.0622    38.9714   0    0  1 
67401.441800   9.88798    7.9265  201.4010   57.5284     4.0738    38.9797   0    0  1 
67401.462772   9.88799    7.9266  201.4010   57.5285     4.0738    38.9757   0    0  1 
67401.483743   9.88799    7.9266  201.4010   57.5285     4.0512    38.9180   0    0  1 
67401.504715   9.88800    7.9266  201.4010   57.5285     4.0530    38.9600   0    0  1 
67401.525686   9.88801    7.9266  201.4010   57.5285     4.0634    38.9596   0    0  1 
67401.546658   9.88801    7.9266  201.4010   57.5285     4.0561    39.0201   0    0  1 
67401.567629   9.88802    7.9266  201.4010   57.5285     4.0750    38.9553   0    0  1 
67401.588601   9.88802    7.9266  201.4010   57.5285     4.0537    38.9651   0    0  1 
67401.609572   9.88803    7.9266  201.4010   57.5285     4.0738    38.9561   0    0  1 
67401.630544   9.88804    7.9266  201.4010   57.5285     4.0750    38.8815   0    0  1 
67401.651515   9.88804    7.9266  201.4010   57.5285     4.0579    38.9663   0    0  1 
67401.672487   9.88805    7.9266  201.4010   57.5285     4.0591    38.9600   0    0  1 
67401.693458   9.88805    7.9266  201.4010   57.5285     4.0573    38.9714   0    0  1 
67401.714430   9.88806    7.9266  201.4010   57.5285     4.0616    38.9710   0    0  1 
67401.735401   9.88807    7.9266  201.4010   57.5285     4.0787    38.9380   0    0  1 
67401.756373   9.88807    7.9266  201.4010   57.5285     4.0604    38.8948   0    0  1 
67401.777345   9.88808    7.9266  201.4010   57.5285     4.0732    38.9266   0    0  1 
67401.798316   9.88808    7.9266  201.4010   57.5285     4.0726    38.9710   0    0  1 
67401.819288   9.88809    7.9266  201.4010   57.5285     4.0720    38.9062   0    0  1 
67401.840259   9.88810    7.9266  201.4010   57.5285     4.0646    39.0264   0    0  1 
67401.861231   9.88810    7.9266  201.4010   57.5285     4.0799    38.9773   0    0  1 
67401.882202   9.88811    7.9266  201.4010   57.5285     4.0671    38.9368   0    0  1 
67401.903174   9.88811    7.9267  201.4010   57.5286     4.0659    38.8795   0    0  1 
67401.924145   9.88812    7.9267  201.4010   57.5286     4.0750    38.9710   0    0  1 
67401.945117   9.88813    7.9267  201.4010   57.5286     4.0774    38.9176   0    0  1 
67401.966088   9.88813    7.9267  201.4010   57.5286     4.0713    38.8964   0    0  1 
67401.987060   9.88814    7.9267  201.4010   57.5286     4.0756    38.9258   0    0  1 
67402.008031   9.88810    7.9269  201.4022   57.5286     4.0482    38.9844   0    0  1 
67402.029003   9.88810    7.9269  201.4023   57.5286     4.0768    38.9620   0    0  1 
67402.049974   9.88811    7.9270  201.4024   57.5286     4.0659    38.9227   0    0  1 
67402.070946   9.88811    7.9270  201.4024   57.5286     4.0713    38.9207   0    0  1 
67402.091917   9.88811    7.9270  201.4025   57.5287     4.0701    38.9278   0    0  1 
67402.112889   9.88812    7.9270  201.4026   57.5287     4.0726    38.9569   0    0  1 
67402.133860   9.88812    7.9270  201.4026   57.5287     4.0616    38.8980   0    0  1 
67402.154832   9.88812    7.9270  201.4027   57.5287     4.0805    38.9329   0    0  1 
67402.175803   9.88813    7.9271  201.4028   57.5287     4.0750    38.9302   0    0  1 
67402.196775   9.88813    7.9271  201.4028   57.5287     4.0738    38.9262   0    0  1 
67402.217746   9.88813    7.9271  201.4029   57.5287     4.0823    38.8320   0    0  1 
67402.238718   9.88814    7.9271  201.4030   57.5287     4.0713    38.9192   0    0  1 
67402.259690   9.88814    7.9271  201.4030   57.5287     4.0659    38.9219   0    0  1 
67402.280661   9.88815    7.9271  201.4031   57.5287     4.0677    38.9278   0    0  1 
67402.301633   9.88815    7.9272  201.4032   57.5287     4.0756    38.9251   0    0  1 
67402.322604   9.88815    7.9272  201.4032   57.5287     4.0683    38.9361   0    0  1 
67402.343576   9.88816    7.9272  201.4033   57.5287     4.0768    39.0107   0    0  1 
67402.364547   9.88816    7.9272  201.4034   57.5287     4.0811    38.9592   0    0  1 
67402.385519   9.88816    7.9272  201.4034   57.5287     4.0524    38.9887   0    0  1 
67402.406490   9.88817    7.9272  201.4035   57.5287     4.0744    38.9172   0    0  1 
67402.427462   9.88817    7.9273  201.4036   57.5288     4.0652    38.9286   0    0  1 
67402.448433   9.88817    7.9273  201.4036   57.5288     4.0616    38.9349   0    0  1 
67402.469405   9.88818    7.9273  201.4037   57.5288     4.0762    38.8744   0    0  1 
67402.490376   9.88818    7.9273  201.4038   57.5288     4.0677    38.8893   0    0  1 
67402.511348   9.88818    7.9273  201.4038   57.5288     4.0768    38.8661   0    0  1 
67402.532319   9.88744    7.9281  201.4243   57.5262     4.0768    38.9203   0    0  1 
67402.553291   9.88738    7.9282  201.4259   57.5261     4.0750    38.9639   0    0  1 
67402.574262   9.88733    7.9283  201.4275   57.5259     4.0750    38.8846   0    0  1 
67402.595234   9.88728    7.9283  201.4290   57.5257     4.0573    38.9761   0    0  1 
67402.616205   9.88723    7.9284  201.4306   57.5255     4.0579    39.0794   0    0  1 
67402.637177   9.88718    7.9285  201.4322   57.5253     4.0659    38.9235   0    0  1 
67402.658148   9.88712    7.9286  201.4338   57.5252     4.0756    38.8496   0    0  1 
67402.679120   9.88707    7.9287  201.4354   57.5250     4.0860    38.8744   0    0  1 
67402.700091   9.88702    7.9287  201.4369   57.5248     4.0762    38.9082   0    0  1 
67402.721063   9.88697    7.9288  201.4385   57.5246     4.0634    38.9007   0    0  1 
67402.742035   9.88691    7.9289  201.4401   57.5244     4.0774    38.9042   0    0  1 
67402.763006   9.88686    7.9290  201.4417   57.5242     4.0689    39.0197   0    0  1 
67402.783978   9.88681    7.9290  201.4433   57.5241     4.0768    38.8764   0    0  1 
67402.804949   9.88676    7.9291  201.4448   57.5239     4.0713    38.8940   0    0  1 
67402.825921   9.88670    7.9292  201.4464   57.5237     4.0579    39.0716   0    0  1 
67402.846892   9.88665    7.9293  201.4480   57.5235     4.0591    39.0417   0    0  1 
67402.867864   9.88660    7.9293  201.4496   57.5233     4.0567    39.2554   0    0  1 
67402.888835   9.88655    7.9294  201.4512   57.5231     4.0713    38.9427   0    0  1 
67402.909807   9.88650    7.9295  201.4528   57.5230     4.0780    38.9211   0    0  1 
67402.930778   9.88644    7.9296  201.4543   57.5228     4.0616    38.9058   0    0  1 
67402.951750   9.88639    7.9296  201.4559   57.5226     4.0604    38.9247   0    0  1 
67402.972721   9.88634    7.9297  201.4575   57.5224     4.0713    38.9317   0    0  1 
67402.993693   9.88629    7.9298  201.4591   57.5222     4.0622    38.9219   0    0  1 
67403.014664   9.88623    7.9299  201.4607   57.5221     4.0616    38.9498   0    0  1 
67403.035636   9.88618    7.9299  201.4622   57.5219     4.0457    38.9396   0    0  1 
67403.056607   9.88613    7.9300  201.4638   57.5217     4.0555    38.9286   0    0  1 
67403.077579   9.88608    7.9301  201.4654   57.5215     4.0549    38.9094   0    0  1 
67403.098550   9.88603    7.9302  201.4670   57.5213     4.0451    38.9588   0    0  1 
67403.119522   9.88597    7.9302  201.4686   57.5211     4.0634    39.0358   0    0  1 
67403.140493   9.88592    7.9303  201.4702   57.5210     4.0720    38.9196   0    0  1 
67403.161465   9.88587    7.9304  201.4717   57.5208     4.0713    38.9215   0    0  1 
67403.182436   9.88582    7.9305  201.4733   57.5206     4.0640    39.0174   0    0  1 
67403.203408   9.88606    7.9286  201.4662   57.5198     4.0616    38.9498   0    0  1 
67403.224380   9.88602    7.9286  201.4672   57.5196     4.0799    38.9804   0    0  1 
67403.245351   9.88599    7.9285  201.4683   57.5194     4.0652    38.9420   0    0  1 
67403.266323   9.88595    7.9285  201.4693   57.5192     4.0634    38.9384   0    0  1 
67403.287294   9.88592    7.9284  201.4704   57.5190     4.0750    38.9836   0    0  1 
67403.308266   9.88588    7.9284  201.4714   57.5187     4.0512    39.0020   0    0  1 
67403.329237   9.88585    7.9283  201.4725   57.5185     4.0628    38.9969   0    0  1 
67403.350209   9.88582    7.9283  201.4735   57.5183     4.0726    38.9757   0    0  1 
67403.371180   9.88578    7.9283  201.4746   57.5181     4.0591    38.9459   0    0  1 
67403.392152   9.88575    7.9282  201.4756   57.5179     4.0524    38.8795   0    0  1 
67403.413123   9.88571    7.9282  201.4767   57.5176     4.0756    38.9251   0    0  1 
67403.434095   9.88568    7.9281  201.4777   57.5174     4.0518    38.8917   0    0  1 
67403.455066   9.88564    7.9281  201.4788   57.5172     4.0561    38.8622   0    0  1 
67403.476038   9.88561    7.9280  201.4798   57.5170     4.0750    38.9152   0    0  1 
67403.497009   9.88558    7.9280  201.4809   57.5168     4.0561    38.9502   0    0  1 
67403.517981   9.88554    7.9280  201.4819   57.5166     4.0671    38.8976   0    0  1 
67403.538952   9.88551    7.9279  201.4829   57.5163     4.0683    38.9408   0    0  1 
67403.559924   9.88547    7.9279  201.4840   57.5161     4.0787    38.8964   0    0  1 
67403.580895   9.88544    7.9278  201.4850   57.5159     4.0780    38.9156   0    0  1 
67403.601867   9.88540    7.9278  201.4861   57.5157     4.0726    38.9333   0    0  1 
67403.622838   9.88537    7.9277  201.4871   57.5155     4.0720    39.0123   0    0  1 
67403.643810   9.88533    7.9277  201.4882   57.5152     4.0701    38.9019   0    0  1 
67403.664781   9.88530    7.9277  201.4892   57.5150     4.0811    38.9302   0    0  1 
67403.685753   9.88527    7.9276  201.4903   57.5148     4.0762    38.9608   0    0  1 
67403.706725   9.88523    7.9276  201.4913   57.5146     4.0695    39.0405   0    0  1 
67403.727696   9.88520    7.9275  201.4924   57.5144     4.0762    38.9317   0    0  1 
67403.748668   9.88562    7.9279  201.4813   57.5166     4.0799    38.9545   0    0  1 
67403.769639   9.88561    7.9278  201.4817   57.5165     4.0811    38.9215   0    0  1 
67403.790611   9.88560    7.9278  201.4821   57.5164     4.0665    39.0024   0    0  1 
67403.811582   9.88560    7.9278  201.4825   57.5163     4.0720    38.9431   0    0  1 
67403.832554   9.88559    7.9278  201.4829   57.5162     4.0585    38.9541   0    0  1 
67403.853525   9.88558    7.9278  201.4833   57.5161     4.0750    38.9828   0    0  1 
67403.874497   9.88557    7.9277  201.4836   57.5160     4.0537    39.0146   0    0  1 
67403.895468   9.88556    7.9277  201.4840   57.5159     4.0689    38.9474   0    0  1 
67403.916440   9.88555    7.9277  201.4844   57.5159     4.0713    38.8469   0    0  1 
67403.937411   9.88554    7.9277  201.4848   57.5158     4.0659    38.9416   0    0  1 
67403.958383   9.88553    7.9276  201.4852   57.5157     4.0805    38.9698   0    0  1 
67403.979354   9.88552    7.9276  201.4856   57.5156     4.0689    38.8948   0    0  1 
67404.000326   9.88551    7.9276  201.4860   57.5155     4.0659    38.8842   0    0  1 
67404.021297   9.88550    7.9276  201.4864   57.5154     4.0793    38.8921   0    0  1 
67404.042269   9.88549    7.9276  201.4868   57.5153     4.0720    38.8881   0    0  1 
67404.063240   9.88548    7.9275  201.4872   57.5152     4.0701    38.9718   0    0  1 
67404.084212   9.88547    7.9275  201.4876   57.5151     4.0750    38.9168   0    0  1 
67404.105183   9.88546    7.9275  201.4880   57.5151     4.0677    38.9553   0    0  1 
67404.126154   9.88545    7.9275  201.4884   57.5150     4.0793    38.9667   0    0  1 
67404.147126   9.88544    7.9274  201.4888   57.5149     4.0677    38.9671   0    0  1 
67404.168097   9.88543    7.9274  201.4892   57.5148     4.0823    38.9310   0    0  1 
67404.189069   9.88542    7.9274  201.4895   57.5147     4.0774    38.8932   0    0  1 
67404.210040   9.88541    7.9274  201.4899   57.5146     4.0793    38.9958   0    0  1 
67404.231012   9.88541    7.9274  201.4903   57.5145     4.0665    38.9749   0    0  1 
67404.251983   9.88540    7.9273  201.4907   57.5144     4.0421    38.8822   0    0  1 
67404.272955   9.88539    7.9273  201.4911   57.5143     4.0707    38.9431   0    0  1 
67404.293927   9.88538    7.9273  201.4915   57.5143     4.0622    38.9824   0    0  1 
67404.314898   9.88537    7.9273  201.4919   57.5142     4.0634    38.9486   0    0  1 
67404.335870   9.88536    7.9272  201.4923   57.5141     4.0805    38.9746   0    0  1 
67404.356841   9.88535    7.9272  201.4927   57.5140     4.0598    38.9282   0    0  1 
67404.377813   9.88534    7.9272  201.4931   57.5139     4.0738    38.9160   0    0  1 
67404.398784   9.88533    7.9272  201.4935   57.5138     4.0689    38.9121   0    0  1 
67404.419756   9.88546    7.9273  201.4901   57.5145     4.0610    38.8756   0    0  1 
67404.440727   9.88546    7.9273  201.4903   57.5145     4.0835    38.9506   0    0  1 
67404.461699   9.88546    7.9273  201.4905   57.5144     4.0695    38.9188   0    0  1 
67404.482670   9.88545    7.9273  201.4907   57.5144     4.0720    38.8999   0    0  1 
67404.503642   9.88545    7.9273  201.4910   57.5143     4.0780    38.9439   0    0  1 
67404.524613   9.88545    7.9273  201.4912   57.5143     4.0659    38.9777   0    0  1 
67404.545585   9.88545    7.9273  201.4914   57.5142     4.0774    38.9247   0    0  1 
67404.566556   9.88544    7.9272  201.4916   57.5142     4.0640    38.9105   0    0  1 
67404.587528   9.88544    7.9272  201.4918   57.5142     4.0634    38.9416   0    0  1 
67404.608499   9.88544    7.9272  201.4920   57.5141     4.0518    38.8870   0    0  1 
67404.629471   9.88544    7.9272  201.4922   57.5141     4.0701    38.9883   0    0  1 
67404.650442   9.88544    7.9272  201.4924   57.5140     4.0701    38.9042   0    0  1 
67404.671414   9.88543    7.9272  201.4926   57.5140     4.0701    38.9145   0    0  1 
67404.692385   9.88543    7.9272  201.4928   57.5139     4.0707    38.8701   0    0  1 
67404.713357   9.88543    7.9272  201.4930   57.5139     4.0738    38.8854   0    0  1 
67404.734328   9.88543    7.9271  201.4932   57.5138     4.0659    38.8716   0    0  1 
67404.755300   9.88542    7.9271  201.4934   57.5138     4.0579    38.8909   0    0  1 
67404.776272   9.88542    7.9271  201.4936   57.5137     4.0720    38.9439   0    0  1 
67404.797243   9.88542    7.9271  201.4938   57.5137     4.0543    38.9946   0    0  1 
67404.818215   9.88542    7.9271  201.4940   57.5136     4.0634    38.9753   0    0  1 
67404.839186   9.88541    7.9271  201.4943   57.5136     4.0677    38.8964   0    0  1 
67404.860158   9.88541    7.9271  201.4945   57.5135     4.0634    38.9549   0    0  1 
67404.881129   9.88541    7.9271  201.4947   57.5135     4.0683    38.9282   0    0  1 
67404.902101   9.88541    7.9270  201.4949   57.5134     4.0573    38.9376   0    0  1 
67404.923072   9.88540    7.9270  201.4951   57.5134     4.0652    38.9404   0    0  1 
67404.944044   9.88540    7.9270  201.4953   57.5133     4.0598    38.9337   0    0  1 
67404.965015   9.88540    7.9270  201.4955   57.5133     4.0549    38.9596   0    0  1 
67404.985987   9.88540    7.9270  201.4957   57.5132     4.0646    38.9518   0    0  1 
67405.006958   9.88551    7.9272  201.4932   57.5139     4.0482    39.0024   0    0  1 
67405.027930   9.88551    7.9272  201.4933   57.5139     4.0567    38.9380   0    0  1 
67405.048901   9.88552    7.9272  201.4934   57.5139     4.0744    39.0162   0    0  1 
67405.069873   9.88552    7.9272  201.4934   57.5139     4.0579    38.8650   0    0  1 
67405.090844   9.88552    7.9272  201.4935   57.5139     4.0585    38.9070   0    0  1 
67405.111816   9.88553    7.9272  201.4936   57.5139     4.0610    38.8410   0    0  1 
67405.132787   9.88553    7.9272  201.4936   57.5139     4.0665    38.9553   0    0  1 
67405.153759   9.88553    7.9272  201.4937   57.5138     4.0738    38.9357   0    0  1 
67405.174730   9.88554    7.9272  201.4938   57.5138     4.0604    38.9325   0    0  1 
67405.195702   9.88554    7.9272  201.4938   57.5138     4.0689    38.9231   0    0  1 
67405.216673   9.88554    7.9272  201.4939   57.5138     4.0750    38.8940   0    0  1 
67405.237645   9.88555    7.9272  201.4940   57.5138     4.0652    38.8461   0    0  1 
67405.258617   9.88555    7.9273  201.4940   57.5138     4.0793    38.8387   0    0  1 
67405.279588   9.88556    7.9273  201.4941   57.5138     4.0665    38.9278   0    0  1 
67405.300560   9.88556    7.9273  201.4942   57.5138     4.0640    38.8901   0    0  1 
67405.321531   9.88556    7.9273  201.4942   57.5138     4.0604    38.8956   0    0  1 
67405.342503   9.88557    7.9273  201.4943   57.5138     4.0640    38.8995   0    0  1 
67405.363474   9.88557    7.9273  201.4944   57.5137     4.0561    38.9368   0    0  1 
67405.384446   9.88557    7.9273  201.4944   57.5137     4.0567    38.9883   0    0  1 
67405.405417   9.88558    7.9273  201.4945   57.5137     4.0634    38.9573   0    0  1 
67405.426389   9.88558    7.9273  201.4946   57.5137     4.0750    38.8877   0    0  1 
67405.447360   9.88558    7.9273  201.4946   57.5137     4.0537    38.9101   0    0  1 
67405.468332   9.88559    7.9273  201.4947   57.5137     4.0713    38.8705   0    0  1 
67405.489303   9.88559    7.9273  201.4947   57.5137     4.0756    38.9368   0    0  1 
67405.510275   9.88559    7.9273  201.4948   57.5137     4.0598    38.9620   0    0  1 
67405.531246   9.88560    7.9273  201.4949   57.5137     4.0665    38.9042   0    0  1 
67405.552218   9.88560    7.9273  201.4949   57.5137     4.0726    38.9184   0    0  1 
67405.573189   9.88561    7.9273  201.4950   57.5136     4.0683    38.9455   0    0  1 
67405.594161   9.88561    7.9273  201.4951   57.5136     4.0610    38.8842   0    0  1 
67405.615132   9.88562    7.9271  201.4946   57.5135     4.0555    38.9372   0    0  1 
67405.636104   9.88563    7.9270  201.4946   57.5135     4.0726    39.0009   0    0  1 
67405.657075   9.88563    7.9270  201.4947   57.5135     4.0665    38.9867   0    0  1 
67405.678047   9.88563    7.9270  201.4947   57.5134     4.0591    38.9050   0    0  1 
67405.699018   9.88564    7.9270  201.4947   57.5134     4.0628    38.8940   0    0  1 
67405.719990   9.88564    7.9270  201.4948   57.5134     4.0671    38.9612   0    0  1 
67405.740962   9.88565    7.9270  201.4948   57.5134     4.0726    38.9129   0    0  1 
67405.761933   9.88565    7.9270  201.4948   57.5134     4.0829    38.9581   0    0  1 
67405.782905   9.88565    7.9270  201.4949   57.5134     4.0762    39.0189   0    0  1 
67405.803876   9.88566    7.9270  201.4949   57.5133     4.0768    38.8614   0    0  1 
67405.824848   9.88566    7.9269  201.4949   57.5133     4.0695    38.9148   0    0  1 
67405.845819   9.88567    7.9269  201.4950   57.5133     4.0567    38.8964   0    0  1 
67405.866791   9.88567    7.9269  201.4950   57.5133     4.0665    38.9019   0    0  1 
67405.887762   9.88568    7.9269  201.4950   57.5133     4.0567    39.0236   0    0  1 
67405.908734   9.88568    7.9269  201.4951   57.5133     4.0701    38.9341   0    0  1 
67405.929705   9.88568    7.9269  201.4951   57.5132     4.0689    38.9310   0    0  1 
67405.950677   9.88569    7.9269  201.4951   57.5132     4.0738    38.8830   0    0  1 
67405.971648   9.88569    7.9269  201.4952   57.5132     4.0549    38.9172   0    0  1 
67405.992620   9.88570    7.9269  201.4952   57.5132     4.0604    38.9459   0    0  1 
67406.013591   9.88570    7.9268  201.4953   57.5132     4.0610    38.9659   0    0  1 
67406.034563   9.88570    7.9268  201.4953   57.5132     4.0573    38.9423   0    0  1 
67406.055534   9.88571    7.9268  201.4953   57.5131     4.0805    38.9227   0    0  1 
67406.076506   9.88571    7.9268  201.4954   57.5131     4.0707    38.9274   0    0  1 
67406.097477   9.88572    7.9268  201.4954   57.5131     4.0689    38.9852   0    0  1 
67406.118449   9.88572    7.9268  201.4954   57.5131     4.0713    38.9184   0    0  1 
67406.139420   9.88572    7.9268  201.4955   57.5131     4.0616    39.0064   0    0  1 
67406.160392   9.88573    7.9268  201.4955   57.5131     4.0732    39.3131   0    0  1 
67406.181363   9.88573    7.9268  201.4955   57.5130     4.0713    38.9082   0    0  1 
67406.202335   9.88574    7.9268  201.4956   57.5130     4.0659    38.9368   0    0  1 
67406.223307   9.88574    7.9267  201.4956   57.5130     4.0665    38.8335   0    0  1 
67406.244278   9.88571    7.9270  201.4968   57.5131     4.0622    38.9290   0    0  1 
67406.265250   9.88571    7.9270  201.4969   57.5130     4.0622    38.8889   0    0  1 
67406.286221   9.88572    7.9270  201.4970   57.5130     4.0665    38.8689   0    0  1 
67406.307193   9.88572    7.9270  201.4971   57.5130     4.0811    38.8398   0    0  1 
67406.328164   9.88572    7.9270  201.4972   57.5130     4.0823    38.9176   0    0  1 
67406.349136   9.88572    7.9270  201.4973   57.5130     4.0756    38.8984   0    0  1 
67406.370107   9.88573    7.9270  201.4974   57.5130     4.0677    38.9655   0    0  1 
67406.391079   9.88573    7.9270  201.4975   57.5130     4.0646    38.9785   0    0  1 
67406.412050   9.88573    7.9270  201.4976   57.5130     4.0610    38.9643   0    0  1 
67406.433022   9.88573    7.9270  201.4977   57.5129     4.0579    39.0315   0    0  1 
67406.453993   9.88573    7.9270  201.4978   57.5129     4.0616    38.9474   0    0  1 
67406.474965   9.88574    7.9270  201.4979   57.5129     4.0689    38.9985   0    0  1 
67406.495936   9.88574    7.9270  201.4980   57.5129     4.0677    38.9765   0    0  1 
67406.516908   9.88574    7.9270  201.4981   57.5129     4.0750    38.9734   0    0  1 
67406.537879   9.88574    7.9270  201.4982   57.5129     4.0567    38.9474   0    0  1 
67406.558851   9.88575    7.9270  201.4983   57.5129     4.0732    38.9078   0    0  1 
67406.579822   9.88575    7.9270  201.4984   57.5129     4.0512    38.9769   0    0  1 
67406.600794   9.88575    7.9270  201.4985   57.5128     4.0768    38.9392   0    0  1 
67406.621765   9.88575    7.9270  201.4986   57.5128     4.0683    38.9518   0    0  1 
67406.642737   9.88576    7.9270  201.4987   57.5128     4.0750    38.9679   0    0  1 
67406.663708   9.88576    7.9270  201.4988   57.5128     4.0720    39.0539   0    0  1 
67406.684680   9.88576    7.9270  201.4989   57.5128     4.0677    38.9867   0    0  1 
67406.705652   9.88576    7.9270  201.4990   57.5128     4.0567    38.8705   0    0  1 
67406.726623   9.88576    7.9271  201.4991   57.5128     4.0652    38.9184   0    0  1 
67406.747595   9.88577    7.9271  201.4992   57.5127     4.0659    38.9746   0    0  1 
67406.768566   9.88577    7.9271  201.4993   57.5127     4.0634    38.9117   0    0  1 
67406.789538   9.88577    7.9271  201.4994   57.5127     4.0659    38.9109   0    0  1 
67406.810509   9.88577    7.9271  201.4995   57.5127     4.0616    38.8791   0    0  1 
67406.831481   9.88578    7.9268  201.4992   57.5125     4.0695    38.9855   0    0  1 
67406.852452   9.88578    7.9268  201.4993   57.5125     4.0543    38.9514   0    0  1 
67406.873424   9.88579    7.9268  201.4994   57.5124     4.0683    38.9078   0    0  1 
67406.894395   9.88579    7.9268  201.4994   57.5124     4.0616    38.9977   0    0  1 
67406.915367   9.88579    7.9268  201.4995   57.5124     4.0659    39.3673   0    0  1 
67406.936338   9.88580    7.9268  201.4996   57.5123     4.0683    38.8646   0    0  1 
67406.957310   9.88580    7.9267  201.4997   57.5123     4.0750    38.8705   0    0  1 
67406.978281   9.88580    7.9267  201.4997   57.5123     4.0689    38.9529   0    0  1 
67406.999253   9.88580    7.9267  201.4998   57.5123     4.0707    38.8771   0    0  1 
67407.020224   9.88581    7.9267  201.4999   57.5122     4.0659    38.9211   0    0  1 
67407.041196   9.88581    7.9267  201.5000   57.5122     4.0683    38.9211   0    0  1 
67407.062167   9.88581    7.9267  201.5000   57.5122     4.0683    38.8936   0    0  1 
67407.083139   9.88581    7.9267  201.5001   57.5122     4.0805    38.8567   0    0  1 
67407.104110   9.88582    7.9266  201.5002   57.5121     4.0695    38.9667   0    0  1 
67407.125082   9.88582    7.9266  201.5003   57.5121     4.0628    38.9907   0    0  1 
67407.146053   9.88582    7.9266  201.5003   57.5121     4.0659    38.9918   0    0  1 
67407.167025   9.88582    7.9266  201.5004   57.5121     4.0555    38.9859   0    0  1 
67407.187997   9.88583    7.9266  201.5005   57.5120     4.0659    38.9518   0    0  1 
67407.208968   9.88583    7.9266  201.5006   57.5120     4.0677    38.9396   0    0  1 
67407.229940   9.88583    7.9266  201.5007   57.5120     4.0689    38.9129   0    0  1 
67407.250911   9.88584    7.9266  201.5007   57.5119     4.0695    38.9981   0    0  1 
67407.271883   9.88584    7.9265  201.5008   57.5119     4.0604    38.9616   0    0  1 
67407.292854   9.88584    7.9265  201.5009   57.5119     4.0652    38.8815   0    0  1 
67407.313826   9.88584    7.9265  201.5010   57.5119     4.0665    38.8877   0    0  1 
67407.334797   9.88585    7.9265  201.5010   57.5118     4.0695    38.9463   0    0  1 
67407.355769   9.88585    7.9265  201.5011   57.5118     4.0726    38.8681   0    0  1 
67407.376740   9.88583    7.9267  201.5018   57.5119     4.0780    38.9117   0    0  1 
67407.397712   9.88583    7.9267  201.5019   57.5119     4.0652    38.9380   0    0  1 
67407.418683   9.88584    7.9267  201.5020   57.5119     4.0549    39.0280   0    0  1 
67407.439655   9.88584    7.9267  201.5021   57.5119     4.0726    38.9600   0    0  1 
67407.460626   9.88584    7.9267  201.5022   57.5118     4.0634    38.9368   0    0  1 
67407.481598   9.88584    7.9267  201.5023   57.5118     4.0561    38.9148   0    0  1 
67407.502569   9.88584    7.9267  201.5024   57.5118     4.0713    38.9341   0    0  1 
67407.523541   9.88584    7.9267  201.5025   57.5118     4.0555    38.9616   0    0  1 
67407.544512   9.88585    7.9267  201.5026   57.5118     4.0720    38.9148   0    0  1 
67407.565484   9.88585    7.9267  201.5028   57.5117     4.0701    38.9828   0    0  1 
67407.586455   9.88585    7.9267  201.5029   57.5117     4.0720    38.9557   0    0  1 
67407.607427   9.88585    7.9267  201.5030   57.5117     4.0774    38.9647   0    0  1 
67407.628398   9.88585    7.9267  201.5031   57.5117     4.0665    38.8838   0    0  1 
67407.649370   9.88585    7.9267  201.5032   57.5117     4.0744    38.9148   0    0  1 
67407.670342   9.88585    7.9267  201.5033   57.5116     4.0640    38.9969   0    0  1 
67407.691313   9.88586    7.9267  201.5034   57.5116     4.0634    38.9306   0    0  1 
67407.712285   9.88586    7.9267  201.5035   57.5116     4.0744    38.9518   0    0  1 
67407.733256   9.88586    7.9267  201.5037   57.5116     4.0598    38.8756   0    0  1 
67407.754228   9.88586    7.9267  201.5038   57.5116     4.0720    38.9219   0    0  1 
67407.775199   9.88586    7.9267  201.5039   57.5116     4.0610    38.8850   0    0  1 
67407.796171   9.88586    7.9267  201.5040   57.5115     4.0665    38.9223   0    0  1 
67407.817142   9.88586    7.9267  201.5041   57.5115     4.0707    38.9329   0    0  1 
67407.838114   9.88587    7.9267  201.5042   57.5115     4.0616    38.9310   0    0  1 
67407.859085   9.88587    7.9267  201.5043   57.5115     4.0689    38.9152   0    0  1 
67407.880057   9.88587    7.9267  201.5044   57.5115     4.0744    38.9258   0    0  1 
67407.901028   9.88587    7.9267  201.5046   57.5114     4.0671    38.9188   0    0  1 
67407.922000   9.88587    7.9267  201.5047   57.5114     4.0671    38.9039   0    0  1 
67407.942971   9.88587    7.9267  201.5048   57.5114     4.0512    38.9298   0    0  1 
67407.963943   9.88588    7.9267  201.5049   57.5114     4.0707    38.9541   0    0  1 
67407.984914   9.88588    7.9267  201.5050   57.5114     4.0598    38.9667   0    0  1 
67408.005886   9.88588    7.9267  201.5051   57.5113     4.0701    38.9074   0    0  1 
67408.026857   9.88588    7.9267  201.5052   57.5113     4.0622    38.9651   0    0  1 
67408.047829   9.88588    7.9266  201.5055   57.5112     4.0610    38.9384   0    0  1 
67408.068800   9.88588    7.9266  201.5057   57.5112     4.0640    38.9372   0    0  1 
67408.089772   9.88588    7.9266  201.5058   57.5111     4.0659    38.9816   0    0  1 
67408.110743   9.88588    7.9266  201.5059   57.5111     4.0652    38.8854   0    0  1 
67408.131715   9.88588    7.9266  201.5060   57.5111     4.0701    38.8783   0    0  1 
67408.152687   9.88588    7.9266  201.5061   57.5111     4.0683    38.9196   0    0  1 
67408.173658   9.88588    7.9266  201.5063   57.5110     4.0774    39.0480   0    0  1 
67408.194630   9.88588    7.9266  201.5064   57.5110     4.0823    38.9514   0    0  1 
67408.215601   9.88589    7.9266  201.5065   57.5110     4.0713    38.9294   0    0  1 
67408.236573   9.88589    7.9266  201.5066   57.5110     4.0555    38.9105   0    0  1 
67408.257544   9.88589    7.9265  201.5068   57.5109     4.0598    38.9196   0    0  1 
67408.278516   9.88589    7.9265  201.5069   57.5109     4.0579    38.9145   0    0  1 
67408.299487   9.88589    7.9265  201.5070   57.5109     4.0768    38.8999   0    0  1 
67408.320459   9.88589    7.9265  201.5071   57.5109     4.0555    38.9090   0    0  1 
67408.341430   9.88589    7.9265  201.5072   57.5109     4.0750    38.8697   0    0  1 
67408.362402   9.88589    7.9265  201.5074   57.5108     4.0744    38.8834   0    0  1 
67408.383373   9.88589    7.9265  201.5075   57.5108     4.0726    38.8815   0    0  1 
67408.404345   9.88590    7.9265  201.5076   57.5108     4.0628    38.8273   0    0  1 
67408.425316   9.88590    7.9265  201.5077   57.5108     4.0598    39.0830   0    0  1 
67408.446288   9.88590    7.9265  201.5078   57.5107     4.0713    38.8477   0    0  1 
67408.467259   9.88590    7.9265  201.5080   57.5107     4.0695    38.8457   0    0  1 
67408.488231   9.88590    7.9265  201.5081   57.5107     4.0634    38.8968   0    0  1 
67408.509202   9.88590    7.9265  201.5082   57.5107     4.0701    38.8461   0    0  1 
67408.530174   9.88590    7.9265  201.5083   57.5106     4.0677    38.9192   0    0  1 
67408.551145   9.88590    7.9265  201.5085   57.5106     4.0701    38.8634   0    0  1 
67408.572117   9.88591    7.9265  201.5086   57.5106     4.0707    38.9706   0    0  1 
67408.593088   9.88591    7.9265  201.5087   57.5106     4.0713    38.9286   0    0  1 
67408.614060   9.88591    7.9265  201.5088   57.5105     4.0689    38.8626   0    0  1 
67408.635032   9.88591    7.9265  201.5089   57.5105     4.0622    38.8874   0    0  1 
67408.656003   9.88591    7.9265  201.5091   57.5105     4.0634    38.8646   0    0  1 
67408.676975   9.88591    7.9265  201.5092   57.5105     4.0762    39.0700   0    0  1 
67408.697946   9.88591    7.9265  201.5093   57.5104     4.0744    38.9400   0    0  1 
67408.718918   9.88587    7.9267  201.5107   57.5105     4.0610    38.8795   0    0  1 
67408.739889   9.88587    7.9267  201.5109   57.5104     4.0756    38.9691   0    0  1 
67408.760861   9.88587    7.9267  201.5111   57.5104     4.0671    38.9203   0    0  1 
67408.781832   9.88586    7.9267  201.5113   57.5104     4.0646    38.9094   0    0  1 
67408.802804   9.88586    7.9267  201.5115   57.5104     4.0610    38.8159   0    0  1 
67408.823775   9.88586    7.9268  201.5117   57.5103     4.0598    38.9086   0    0  1 
67408.844747   9.88586    7.9268  201.5119   57.5103     4.0604    38.9152   0    0  1 
67408.865718   9.88586    7.9268  201.5121   57.5103     4.0604    38.9168   0    0  1 
67408.886690   9.88586    7.9268  201.5122   57.5103     4.0591    38.9239   0    0  1 
67408.907661   9.88586    7.9268  201.5124   57.5102     4.0640    38.9443   0    0  1 
67408.928633   9.88586    7.9268  201.5126   57.5102     4.0610    39.0908   0    0  1 
67408.949604   9.88586    7.9268  201.5128   57.5102     4.0604    38.9184   0    0  1 
67408.970576   9.88585    7.9268  201.5130   57.5102     4.0768    38.9062   0    0  1 
67408.991547   9.88585    7.9268  201.5132   57.5102     4.0689    38.9160   0    0  1 
67409.012519   9.88585    7.9268  201.5134   57.5101     4.0628    38.8398   0    0  1 
67409.033490   9.88585    7.9268  201.5135   57.5101     4.0720    38.9046   0    0  1 
67409.054462   9.88585    7.9268  201.5137   57.5101     4.0555    38.9223   0    0  1 
67409.075433   9.88585    7.9269  201.5139   57.5101     4.0659    38.8881   0    0  1 
67409.096405   9.88585    7.9269  201.5141   57.5100     4.0720    38.8606   0    0  1 
67409.117377   9.88585    7.9269  201.5143   57.5100     4.0604    38.8681   0    0  1 
67409.138348   9.88585    7.9269  201.5145   57.5100     4.0671    38.9164   0    0  1 
67409.159320   9.88584    7.9269  201.5147   57.5100     4.0518    38.8854   0    0  1 
67409.180291   9.88584    7.9269  201.5149   57.5100     4.0585    38.9596   0    0  1 
67409.201263   9.88584    7.9269  201.5150   57.5099     4.0616    38.9317   0    0  1 
67409.222234   9.88584    7.9269  201.5152   57.5099     4.0665    38.8854   0    0  1 
67409.243206   9.88588    7.9267  201.5144   57.5098     4.0451    38.8661   0    0  1 
67409.264177   9.88588    7.9267  201.5145   57.5098     4.0634    38.8756   0    0  1 
67409.285149   9.88588    7.9267  201.5147   57.5098     4.0537    38.8135   0    0  1 
67409.306120   9.88588    7.9267  201.5148   57.5097     4.0567    38.8257   0    0  1 
67409.327092   9.88588    7.9267  201.5149   57.5097     4.0689    38.9003   0    0  1 
67409.348063   9.88588    7.9267  201.5151   57.5097     4.0415    38.8559   0    0  1 
67409.369035   9.88588    7.9267  201.5152   57.5097     4.0683    38.8520   0    0  1 
67409.390006   9.88588    7.9267  201.5153   57.5096     4.0561    38.8669   0    0  1 
67409.410978   9.88589    7.9267  201.5154   57.5096     4.0695    38.8991   0    0  1 
67409.431949   9.88589    7.9267  201.5156   57.5096     4.0634    38.8426   0    0  1 
67409.452921   9.88589    7.9266  201.5157   57.5096     4.0744    38.8520   0    0  1 
67409.473892   9.88589    7.9266  201.5158   57.5095     4.0683    38.8732   0    0  1 
67409.494864   9.88589    7.9266  201.5160   57.5095     4.0817    38.8504   0    0  1 
67409.515835   9.88589    7.9266  201.5161   57.5095     4.0841    38.9392   0    0  1 
67409.536807   9.88589    7.9266  201.5162   57.5095     4.0671    38.8394   0    0  1 
67409.557778   9.88589    7.9266  201.5164   57.5094     4.0524    38.8457   0    0  1 
67409.578750   9.88589    7.9266  201.5165   57.5094     4.0768    38.9455   0    0  1 
67409.599722   9.88589    7.9266  201.5166   57.5094     4.0591    38.9577   0    0  1 
67409.620693   9.88590    7.9266  201.5168   57.5093     4.0640    38.9231   0    0  1 
67409.641665   9.88590    7.9266  201.5169   57.5093     4.0561    38.8976   0    0  1 
67409.662636   9.88590    7.9266  201.5170   57.5093     4.0683    38.9400   0    0  1 
67409.683608   9.88590    7.9266  201.5171   57.5093     4.0726    38.9671   0    0  1 
67409.704579   9.88590    7.9266  201.5173   57.5092     4.0829    38.8685   0    0  1 
67409.725551   9.88590    7.9266  201.5174   57.5092     4.0579    38.9255   0    0  1 
67409.746522   9.88590    7.9266  201.5175   57.5092     4.0762    38.9616   0    0  1 
67409.767494   9.88590    7.9266  201.5177   57.5092     4.0720    38.9251   0    0  1 
67409.788465   9.88590    7.9266  201.5178   57.5091     4.0640    38.9639   0    0  1 
67409.809437   9.88590    7.9266  201.5179   57.5091     4.0701    38.8893   0    0  1 
67409.830408   9.88591    7.9266  201.5181   57.5091     4.0744    38.9431   0    0  1 
67409.851380   9.88591    7.9266  201.5182   57.5091     4.0604    38.9317   0    0  1 
67409.872351   9.88591    7.9266  201.5183   57.5090     4.0646    38.9777   0    0  1 
67409.893323   9.88591    7.9266  201.5185   57.5090     4.0524    38.9989   0    0  1 
67409.914294   9.88588    7.9266  201.5194   57.5089     4.0646    39.0170   0    0  1 
67409.935266   9.88588    7.9266  201.5196   57.5089     4.0634    38.9910   0    0  1 
67409.956237   9.88588    7.9266  201.5197   57.5088     4.0762    38.8838   0    0  1 
67409.977209   9.88587    7.9266  201.5199   57.5088     4.0726    38.9349   0    0  1 
67409.998180   9.88587    7.9266  201.5201   57.5088     4.0610    38.9172   0    0  1 
67410.019152   9.88587    7.9266  201.5203   57.5087     4.0646    38.8544   0    0  1 
67410.040123   9.88587    7.9266  201.5204   57.5087     4.0506    38.8893   0    0  1 
67410.061095   9.88587    7.9266  201.5206   57.5087     4.0610    38.9101   0    0  1 
67410.082067   9.88587    7.9266  201.5208   57.5086     4.0756    38.8410   0    0  1 
67410.103038   9.88587    7.9266  201.5209   57.5086     4.0701    38.9247   0    0  1 
67410.124010   9.88587    7.9266  201.5211   57.5086     4.0518    38.8917   0    0  1 
67410.144981   9.88587    7.9266  201.5213   57.5085     4.0579    38.9302   0    0  1 
67410.165953   9.88587    7.9266  201.5215   57.5085     4.0677    38.8932   0    0  1 
67410.186924   9.88587    7.9266  201.5216   57.5085     4.0537    38.9510   0    0  1 
67410.207896   9.88587    7.9266  201.5218   57.5085     4.0707    38.9070   0    0  1 
67410.228867   9.88587    7.9266  201.5220   57.5084     4.0439    38.9306   0    0  1 
67410.249839   9.88587    7.9266  201.5221   57.5084     4.0591    38.8885   0    0  1 
67410.270810   9.88586    7.9266  201.5223   57.5084     4.0451    38.8889   0    0  1 
67410.291782   9.88586    7.9266  201.5225   57.5083     4.0518    38.9042   0    0  1 
67410.312753   9.88586    7.9266  201.5227   57.5083     4.0616    38.8987   0    0  1 
67410.333725   9.88586    7.9266  201.5228   57.5083     4.0543    38.9082   0    0  1 
67410.354696   9.88586    7.9266  201.5230   57.5082     4.0445    38.8728   0    0  1 
67410.375668   9.88586    7.9266  201.5232   57.5082     4.0677    38.8815   0    0  1 
67410.396639   9.88586    7.9266  201.5233   57.5082     4.0683    38.8929   0    0  1 
67410.417611   9.88586    7.9265  201.5235   57.5081     4.0445    38.9050   0    0  1 
67410.438582   9.88586    7.9265  201.5237   57.5081     4.0640    38.8775   0    0  1 
67410.459554   9.88588    7.9266  201.5231   57.5083     4.0616    38.9420   0    0  1 
67410.480525   9.88588    7.9266  201.5232   57.5082     4.0500    38.9384   0    0  1 
67410.501497   9.88589    7.9266  201.5233   57.5082     4.0591    38.8139   0    0  1 
67410.522468   9.88589    7.9266  201.5235   57.5082     4.0500    38.9062   0    0  1 
67410.543440   9.88589    7.9266  201.5236   57.5082     4.0476    38.8426   0    0  1 
67410.564412   9.88589    7.9266  201.5237   57.5081     4.0665    38.9302   0    0  1 
67410.585383   9.88589    7.9266  201.5239   57.5081     4.0634    38.8929   0    0  1 
67410.606355   9.88589    7.9266  201.5240   57.5081     4.0530    38.9042   0    0  1 
67410.627326   9.88589    7.9266  201.5241   57.5081     4.0494    38.8822   0    0  1 
67410.648298   9.88589    7.9266  201.5242   57.5081     4.0549    38.9423   0    0  1 
67410.669269   9.88589    7.9266  201.5244   57.5080     4.0433    38.8390   0    0  1 
67410.690241   9.88589    7.9266  201.5245   57.5080     4.0561    38.8936   0    0  1 
67410.711212   9.88589    7.9266  201.5246   57.5080     4.0677    39.1289   0    0  1 
67410.732184   9.88589    7.9266  201.5247   57.5080     4.0689    38.8493   0    0  1 
67410.753155   9.88590    7.9266  201.5249   57.5080     4.0567    38.8540   0    0  1 
67410.774127   9.88590    7.9266  201.5250   57.5079     4.0409    38.9687   0    0  1 
67410.795098   9.88590    7.9266  201.5251   57.5079     4.0372    38.8767   0    0  1 
67410.816070   9.88590    7.9266  201.5252   57.5079     4.0604    38.8932   0    0  1 
67410.837041   9.88590    7.9266  201.5254   57.5079     4.0585    38.8536   0    0  1 
67410.858013   9.88590    7.9266  201.5255   57.5079     4.0622    38.8881   0    0  1 
67410.878984   9.88590    7.9266  201.5256   57.5078     4.0549    38.8709   0    0  1 
67410.899956   9.88590    7.9266  201.5257   57.5078     4.0561    38.8976   0    0  1 
67410.920927   9.88590    7.9266  201.5259   57.5078     4.0360    38.8948   0    0  1 
67410.941899   9.88590    7.9266  201.5260   57.5078     4.0616    38.9302   0    0  1 
67410.962870   9.88590    7.9266  201.5261   57.5077     4.0622    39.1851   0    0  1 
67410.983842   9.88590    7.9266  201.5262   57.5077     4.0579    38.9506   0    0  1 
67411.004813   9.88591    7.9266  201.5264   57.5077     4.0524    38.9054   0    0  1 
67411.025785   9.88591    7.9266  201.5265   57.5077     4.0543    38.9200   0    0  1 
67411.046757   9.88591    7.9266  201.5266   57.5077     4.0628    38.8885   0    0  1 
67411.067728   9.88591    7.9266  201.5267   57.5076     4.0598    38.8976   0    0  1 
67411.088700   9.88591    7.9266  201.5269   57.5076     4.0659    38.8811   0    0  1 
67411.109671   9.88591    7.9266  201.5270   57.5076     4.0567    39.0307   0    0  1 
67411.130643   9.88588    7.9267  201.5282   57.5075     4.0549    38.9141   0    0  1 
67411.151614   9.88588    7.9267  201.5283   57.5075     4.0695    38.9368   0    0  1 
67411.172586   9.88588    7.9267  201.5285   57.5075     4.0567    38.9435   0    0  1 
67411.193557   9.88588    7.9267  201.5287   57.5075     4.0506    38.9467   0    0  1 
67411.214529   9.88588    7.9267  201.5288   57.5075     4.0585    39.0610   0    0  1 
67411.235500   9.88588    7.9267  201.5290   57.5074     4.0768    38.9526   0    0  1 
67411.256472   9.88588    7.9267  201.5292   57.5074     4.0713    38.9592   0    0  1 
67411.277443   9.88588    7.9267  201.5293   57.5074     4.0750    38.9168   0    0  1 
67411.298414   9.88588    7.9268  201.5295   57.5074     4.0573    38.9117   0    0  1 
67411.319386   9.88588    7.9268  201.5297   57.5073     4.0683    38.9172   0    0  1 
67411.340357   9.88588    7.9268  201.5298   57.5073     4.0579    38.9451   0    0  1 
67411.361329   9.88588    7.9268  201.5300   57.5073     4.0579    38.8893   0    0  1 
67411.382300   9.88588    7.9268  201.5302   57.5073     4.0616    38.9310   0    0  1 
67411.403272   9.88588    7.9268  201.5303   57.5073     4.0476    39.0036   0    0  1 
67411.424243   9.88588    7.9268  201.5305   57.5072     4.0750    38.9537   0    0  1 
67411.445215   9.88588    7.9268  201.5307   57.5072     4.0585    38.9392   0    0  1 
67411.466186   9.88588    7.9268  201.5308   57.5072     4.0585    39.0453   0    0  1 
67411.487158   9.88588    7.9268  201.5310   57.5072     4.0524    38.8583   0    0  1 
67411.508129   9.88588    7.9268  201.5312   57.5071     4.0433    38.9207   0    0  1 
67411.529101   9.88588    7.9268  201.5314   57.5071     4.0622    38.8536   0    0  1 
67411.550072   9.88588    7.9268  201.5315   57.5071     4.0713    38.8108   0    0  1 
67411.571044   9.88588    7.9268  201.5317   57.5071     4.0470    38.8752   0    0  1 
67411.592015   9.88588    7.9268  201.5319   57.5071     4.0482    38.9176   0    0  1 
67411.612987   9.88588    7.9268  201.5320   57.5070     4.0683    38.8960   0    0  1 
67411.633958   9.88588    7.9268  201.5322   57.5070     4.0610    38.9675   0    0  1 
67411.654930   9.88589    7.9267  201.5321   57.5069     4.0598    38.9518   0    0  1 
67411.675902   9.88589    7.9267  201.5323   57.5069     4.0585    38.9007   0    0  1 
67411.696873   9.88589    7.9267  201.5324   57.5069     4.0689    38.8901   0    0  1 
67411.717845   9.88589    7.9267  201.5326   57.5069     4.0646    38.9871   0    0  1 
67411.738816   9.88589    7.9267  201.5327   57.5068     4.0482    38.8610   0    0  1 
67411.759788   9.88589    7.9267  201.5329   57.5068     4.0701    38.9262   0    0  1 
67411.780759   9.88589    7.9267  201.5330   57.5068     4.0561    38.8756   0    0  1 
67411.801731   9.88589    7.9267  201.5332   57.5067     4.0646    38.9227   0    0  1 
67411.822702   9.88589    7.9267  201.5333   57.5067     4.0488    38.8905   0    0  1 
67411.843674   9.88589    7.9267  201.5335   57.5067     4.0646    38.9046   0    0  1 
67411.864645   9.88589    7.9267  201.5336   57.5067     4.0555    38.8760   0    0  1 
67411.885617   9.88589    7.9267  201.5338   57.5066     4.0768    38.9266   0    0  1 
67411.906588   9.88589    7.9267  201.5339   57.5066     4.0530    38.9687   0    0  1 
67411.927560   9.88589    7.9267  201.5341   57.5066     4.0555    38.9333   0    0  1 
67411.948531   9.88589    7.9267  201.5342   57.5066     4.0677    38.9325   0    0  1 
67411.969503   9.88589    7.9267  201.5344   57.5065     4.0524    38.9290   0    0  1 
67411.990474   9.88589    7.9267  201.5345   57.5065     4.0591    38.8775   0    0  1 
67412.011446   9.88589    7.9267  201.5347   57.5065     4.0591    38.9082   0    0  1 
67412.032417   9.88589    7.9267  201.5348   57.5065     4.0640    38.9278   0    0  1 
67412.053389   9.88589    7.9267  201.5350   57.5064     4.0476    39.0130   0    0  1 
67412.074360   9.88589    7.9267  201.5351   57.5064     4.0506    38.8838   0    0  1 
67412.095332   9.88589    7.9267  201.5353   57.5064     4.0549    38.9816   0    0  1 
67412.116303   9.88589    7.9267  201.5354   57.5064     4.0683    38.9117   0    0  1 
67412.137275   9.88589    7.9267  201.5356   57.5063     4.0659    38.9439   0    0  1 
67412.158247   9.88589    7.9267  201.5357   57.5063     4.0494    38.8964   0    0  1 
67412.179218   9.88589    7.9267  201.5359   57.5063     4.0604    38.9655   0    0  1 
67412.200190   9.88590    7.9267  201.5360   57.5062     4.0616    39.0229   0    0  1 
67412.221161   9.88590    7.9267  201.5362   57.5062     4.0726    38.9694   0    0  1 
67412.242133   9.88590    7.9267  201.5363   57.5062     4.0634    38.9376   0    0  1 
67412.263104   9.88590    7.9267  201.5365   57.5062     4.0488    38.9125   0    0  1 
67412.284076   9.88590    7.9267  201.5366   57.5061     4.0573    38.9879   0    0  1 
67412.305047   9.88590    7.9267  201.5368   57.5061     4.0604    38.9812   0    0  1 
67412.326019   9.88588    7.9267  201.5372   57.5060     4.0695    39.0075   0    0  1 
67412.346990   9.88588    7.9267  201.5374   57.5060     4.0616    39.0606   0    0  1 
67412.367962   9.88588    7.9267  201.5376   57.5060     4.0500    38.9738   0    0  1 
67412.388933   9.88588    7.9267  201.5377   57.5059     4.0598    38.8984   0    0  1 
67412.409905   9.88587    7.9267  201.5379   57.5059     4.0445    38.8925   0    0  1 
67412.430876   9.88587    7.9267  201.5381   57.5059     4.0677    38.9592   0    0  1 
67412.451848   9.88587    7.9267  201.5382   57.5058     4.0567    38.9082   0    0  1 
67412.472819   9.88587    7.9267  201.5384   57.5058     4.0640    38.9365   0    0  1 
67412.493791   9.88587    7.9267  201.5386   57.5058     4.0610    39.0170   0    0  1 
67412.514762   9.88587    7.9267  201.5387   57.5058     4.0598    38.9706   0    0  1 
67412.535734   9.88587    7.9267  201.5389   57.5057     4.0409    38.9365   0    0  1 
67412.556705   9.88587    7.9267  201.5391   57.5057     4.0482    38.9616   0    0  1 
67412.577677   9.88587    7.9267  201.5392   57.5057     4.0494    38.9231   0    0  1 
67412.598648   9.88587    7.9267  201.5394   57.5056     4.0549    38.9494   0    0  1 
67412.619620   9.88587    7.9267  201.5396   57.5056     4.0707    38.9502   0    0  1 
67412.640592   9.88587    7.9267  201.5397   57.5056     4.0652    38.9247   0    0  1 
67412.661563   9.88587    7.9267  201.5399   57.5055     4.0646    38.9353   0    0  1 
67412.682535   9.88587    7.9267  201.5401   57.5055     4.0689    38.9066   0    0  1 
67412.703506   9.88587    7.9267  201.5402   57.5055     4.0616    38.9341   0    0  1 
67412.724478   9.88586    7.9267  201.5404   57.5055     4.0598    38.9549   0    0  1 
67412.745449   9.88586    7.9267  201.5406   57.5054     4.0646    38.9478   0    0  1 
67412.766421   9.88586    7.9266  201.5407   57.5054     4.0628    38.9412   0    0  1 
67412.787392   9.88586    7.9266  201.5409   57.5054     4.0616    38.8665   0    0  1 
67412.808364   9.88586    7.9266  201.5411   57.5053     4.0622    38.9494   0    0  1 
67412.829335   9.88586    7.9266  201.5412   57.5053     4.0604    38.9435   0    0  1 
67412.850307   9.88586    7.9266  201.5414   57.5053     4.0500    38.9816   0    0  1 
67412.871278   9.88587    7.9266  201.5413   57.5053     4.0500    38.9353   0    0  1 
67412.892250   9.88587    7.9266  201.5414   57.5053     4.0506    38.9152   0    0  1 
67412.913221   9.88587    7.9266  201.5416   57.5052     4.0585    38.8952   0    0  1 
67412.934193   9.88587    7.9266  201.5417   57.5052     4.0378    38.9801   0    0  1 
67412.955164   9.88587    7.9266  201.5419   57.5052     4.0476    38.9541   0    0  1 
67412.976136   9.88587    7.9266  201.5420   57.5052     4.0634    39.0123   0    0  1 
67412.997107   9.88587    7.9266  201.5422   57.5051     4.0573    38.9659   0    0  1 
67413.018079   9.88587    7.9266  201.5423   57.5051     4.0482    38.9270   0    0  1 
67413.039050   9.88587    7.9266  201.5425   57.5051     4.0610    38.9463   0    0  1 
67413.060022   9.88587    7.9266  201.5426   57.5051     4.0622    38.8850   0    0  1 
67413.080993   9.88587    7.9266  201.5428   57.5050     4.0445    38.9522   0    0  1 
67413.101965   9.88587    7.9266  201.5429   57.5050     4.0567    38.9443   0    0  1 
67413.122937   9.88587    7.9266  201.5431   57.5050     4.0585    38.9251   0    0  1 
67413.143908   9.88587    7.9266  201.5432   57.5050     4.0640    38.9231   0    0  1 
67413.164880   9.88587    7.9266  201.5434   57.5049     4.0555    38.9412   0    0  1 
67413.185851   9.88587    7.9266  201.5435   57.5049     4.0573    38.9094   0    0  1 
67413.206823   9.88587    7.9266  201.5437   57.5049     4.0445    38.9168   0    0  1 
67413.227794   9.88587    7.9266  201.5438   57.5049     4.0683    39.0060   0    0  1 
67413.248766   9.88587    7.9266  201.5440   57.5048     4.0713    38.9875   0    0  1 
67413.269737   9.88587    7.9266  201.5441   57.5048     4.0744    38.9078   0    0  1 
67413.290709   9.88587    7.9266  201.5443   57.5048     4.0524    38.8999   0    0  1 
67413.311680   9.88587    7.9266  201.5444   57.5047     4.0677    38.9105   0    0  1 
67413.332652   9.88587    7.9266  201.5446   57.5047     4.0744    38.8685   0    0  1 
67413.353623   9.88587    7.9266  201.5447   57.5047     4.0610    38.9447   0    0  1 
67413.374595   9.88587    7.9266  201.5449   57.5047     4.0610    38.8638   0    0  1 
67413.395566   9.88587    7.9266  201.5450   57.5046     4.0530    38.9490   0    0  1 
67413.416538   9.88587    7.9266  201.5452   57.5046     4.0677    38.9160   0    0  1 
67413.437509   9.88587    7.9266  201.5453   57.5046     4.0579    38.9482   0    0  1 
67413.458481   9.88587    7.9266  201.5455   57.5046     4.0329    38.9612   0    0  1 
67413.479452   9.88587    7.9266  201.5456   57.5045     4.0427    38.9298   0    0  1 
67413.500424   9.88587    7.9266  201.5458   57.5045     4.0463    38.8944   0    0  1 
67413.521395   9.88587    7.9266  201.5459   57.5045     4.0488    38.8897   0    0  1 
67413.542367   9.88589    7.9265  201.5457   57.5045     4.0537    38.9306   0    0  1 
67413.563338   9.88589    7.9265  201.5458   57.5044     4.0579    38.9781   0    0  1 
67413.584310   9.88589    7.9265  201.5460   57.5044     4.0524    38.9235   0    0  1 
67413.605282   9.88589    7.9265  201.5461   57.5044     4.0665    38.9474   0    0  1 
67413.626253   9.88589    7.9265  201.5462   57.5044     4.0738    38.8453   0    0  1 
67413.647225   9.88590    7.9265  201.5464   57.5043     4.0585    38.8874   0    0  1 
67413.668196   9.88590    7.9265  201.5465   57.5043     4.0640    38.8791   0    0  1 
67413.689168   9.88590    7.9265  201.5466   57.5043     4.0561    38.8952   0    0  1 
67413.710139   9.88590    7.9265  201.5468   57.5042     4.0713    38.9247   0    0  1 
67413.731111   9.88590    7.9265  201.5469   57.5042     4.0567    38.9097   0    0  1 
67413.752082   9.88590    7.9265  201.5470   57.5042     4.0598    38.9706   0    0  1 
67413.773054   9.88590    7.9265  201.5471   57.5042     4.0591    38.9239   0    0  1 
67413.794025   9.88590    7.9265  201.5473   57.5041     4.0640    38.9553   0    0  1 
67413.814997   9.88590    7.9265  201.5474   57.5041     4.0585    38.9031   0    0  1 
67413.835968   9.88590    7.9265  201.5475   57.5041     4.0585    38.8944   0    0  1 
67413.856940   9.88591    7.9265  201.5477   57.5041     4.0555    38.9192   0    0  1 
67413.877911   9.88591    7.9265  201.5478   57.5040     4.0616    38.9420   0    0  1 
67413.898883   9.88591    7.9265  201.5479   57.5040     4.0561    38.9211   0    0  1 
67413.919854   9.88591    7.9265  201.5481   57.5040     4.0494    38.9255   0    0  1 
67413.940826   9.88591    7.9265  201.5482   57.5040     4.0500    38.9211   0    0  1 
67413.961797   9.88591    7.9265  201.5483   57.5039     4.0506    38.8980   0    0  1 
67413.982769   9.88591    7.9265  201.5485   57.5039     4.0585    38.9361   0    0  1 
67414.003740   9.88591    7.9265  201.5486   57.5039     4.0439    38.9094   0    0  1 
67414.024712   9.88591    7.9265  201.5487   57.5039     4.0561    38.8819   0    0  1 
67414.045683   9.88591    7.9265  201.5488   57.5038     4.0659    38.8544   0    0  1 
67414.066655   9.88591    7.9265  201.5490   57.5038     4.0598    38.8771   0    0  1 
67414.087627   9.88589    7.9266  201.5498   57.5038     4.0506    38.8579   0    0  1 
67414.108598   9.88589    7.9266  201.5499   57.5038     4.0439    38.9368   0    0  1 
67414.129570   9.88589    7.9266  201.5501   57.5038     4.0561    38.8803   0    0  1 
67414.150541   9.88589    7.9266  201.5503   57.5037     4.0604    38.8477   0    0  1 
67414.171513   9.88589    7.9266  201.5505   57.5037     4.0451    38.8174   0    0  1 
67414.192484   9.88589    7.9266  201.5506   57.5037     4.0561    38.8881   0    0  1 
67414.213456   9.88588    7.9266  201.5508   57.5037     4.0512    38.8952   0    0  1 
67414.234427   9.88588    7.9266  201.5510   57.5036     4.0567    38.9459   0    0  1 
67414.255399   9.88588    7.9266  201.5511   57.5036     4.0543    38.8893   0    0  1 
67414.276370   9.88588    7.9266  201.5513   57.5036     4.0604    38.9427   0    0  1 
67414.297342   9.88588    7.9266  201.5515   57.5036     4.0390    38.8764   0    0  1 
67414.318313   9.88588    7.9266  201.5517   57.5035     4.0634    38.9533   0    0  1 
67414.339285   9.88588    7.9266  201.5518   57.5035     4.0695    38.8347   0    0  1 
67414.360256   9.88588    7.9266  201.5520   57.5035     4.0573    38.8630   0    0  1 
67414.381228   9.88588    7.9266  201.5522   57.5035     4.0579    38.9137   0    0  1 
67414.402199   9.88588    7.9266  201.5523   57.5035     4.0579    38.9262   0    0  1 
67414.423171   9.88588    7.9267  201.5525   57.5034     4.0555    38.8791   0    0  1 
67414.444142   9.88588    7.9267  201.5527   57.5034     4.0695    38.8740   0    0  1 
67414.465114   9.88588    7.9267  201.5529   57.5034     4.0628    38.9019   0    0  1 
67414.486085   9.88588    7.9267  201.5530   57.5034     4.0439    38.8889   0    0  1 
67414.507057   9.88588    7.9267  201.5532   57.5033     4.0573    39.0107   0    0  1 
67414.528028   9.88587    7.9267  201.5534   57.5033     4.0524    38.9007   0    0  1 
67414.549000   9.88587    7.9267  201.5535   57.5033     4.0622    38.8803   0    0  1 
67414.569972   9.88587    7.9267  201.5537   57.5033     4.0695    38.8921   0    0  1 
67414.590943   9.88587    7.9267  201.5539   57.5032     4.0445    38.8493   0    0  1 
67414.611915   9.88587    7.9267  201.5541   57.5032     4.0689    38.9420   0    0  1 
67414.632886   9.88587    7.9267  201.5542   57.5032     4.0622    38.8740   0    0  1 
67414.653858   9.88587    7.9267  201.5544   57.5032     4.0476    38.8701   0    0  1 
67414.674829   9.88587    7.9267  201.5546   57.5031     4.0634    38.8756   0    0  1 
67414.695801   9.88587    7.9267  201.5548   57.5031     4.0402    38.8921   0    0  1 
67414.716772   9.88587    7.9267  201.5549   57.5031     4.0689    38.9168   0    0  1 
67414.737744   9.88588    7.9265  201.5547   57.5029     4.0598    38.9180   0    0  1 
67414.758715   9.88588    7.9265  201.5548   57.5029     4.0476    38.9431   0    0  1 
67414.779687   9.88588    7.9265  201.5550   57.5028     4.0506    38.8697   0    0  1 
67414.800658   9.88588    7.9265  201.5551   57.5028     4.0530    38.8477   0    0  1 
67414.821630   9.88588    7.9265  201.5553   57.5028     4.0689    38.8736   0    0  1 
67414.842601   9.88588    7.9264  201.5554   57.5027     4.0671    38.9164   0    0  1 
67414.863573   9.88588    7.9264  201.5556   57.5027     4.0500    38.9094   0    0  1 
67414.884544   9.88588    7.9264  201.5557   57.5027     4.0427    38.8842   0    0  1 
67414.905516   9.88588    7.9264  201.5559   57.5026     4.0341    38.8866   0    0  1 
67414.926487   9.88588    7.9264  201.5560   57.5026     4.0585    38.9706   0    0  1 
67414.947459   9.88588    7.9264  201.5562   57.5026     4.0488    38.9494   0    0  1 
67414.968430   9.88588    7.9264  201.5563   57.5025     4.0628    38.8799   0    0  1 
67414.989402   9.88588    7.9264  201.5565   57.5025     4.0634    38.9266   0    0  1 
67415.010373   9.88588    7.9264  201.5566   57.5025     4.0683    38.9447   0    0  1 
67415.031345   9.88588    7.9264  201.5568   57.5024     4.0610    38.8575   0    0  1 
67415.052317   9.88588    7.9264  201.5569   57.5024     4.0530    38.9247   0    0  1 
67415.073288   9.88588    7.9263  201.5571   57.5024     4.0476    38.9266   0    0  1 
67415.094260   9.88588    7.9263  201.5572   57.5023     4.0409    38.8932   0    0  1 
67415.115231   9.88588    7.9263  201.5574   57.5023     4.0524    38.8394   0    0  1 
67415.136203   9.88588    7.9263  201.5575   57.5023     4.0646    38.8795   0    0  1 
67415.157174   9.88588    7.9263  201.5577   57.5022     4.0549    38.8630   0    0  1 
67415.178146   9.88588    7.9263  201.5578   57.5022     4.0482    38.8807   0    0  1 
67415.199117   9.88588    7.9263  201.5580   57.5022     4.0567    38.8744   0    0  1 
67415.220089   9.88588    7.9263  201.5581   57.5021     4.0506    38.9514   0    0  1 
67415.241060   9.88588    7.9263  201.5583   57.5021     4.0720    38.8826   0    0  1 
67415.262032   9.88588    7.9263  201.5584   57.5021     4.0451    39.0099   0    0  1 
67415.283003   9.88587    7.9265  201.5589   57.5022     4.0482    38.9946   0    0  1 
67415.303975   9.88587    7.9265  201.5590   57.5022     4.0384    39.0017   0    0  1 
67415.324946   9.88587    7.9265  201.5592   57.5022     4.0713    38.9388   0    0  1 
67415.345918   9.88587    7.9265  201.5594   57.5021     4.0470    38.9042   0    0  1 
67415.366889   9.88587    7.9265  201.5595   57.5021     4.0470    38.9553   0    0  1 
67415.387861   9.88587    7.9265  201.5597   57.5021     4.0622    38.9942   0    0  1 
67415.408832   9.88587    7.9265  201.5599   57.5021     4.0652    38.9294   0    0  1 
67415.429804   9.88587    7.9265  201.5600   57.5020     4.0518    38.8925   0    0  1 
67415.450775   9.88587    7.9265  201.5602   57.5020     4.0695    38.9306   0    0  1 
67415.471747   9.88587    7.9265  201.5604   57.5020     4.0512    38.9243   0    0  1 
67415.492718   9.88587    7.9265  201.5605   57.5020     4.0585    38.9651   0    0  1 
67415.513690   9.88587    7.9265  201.5607   57.5019     4.0604    38.9207   0    0  1 
67415.534662   9.88587    7.9265  201.5609   57.5019     4.0640    38.9294   0    0  1 
67415.555633   9.88587    7.9265  201.5610   57.5019     4.0720    38.9298   0    0  1 
67415.576605   9.88587    7.9265  201.5612   57.5019     4.0585    38.8874   0    0  1 
67415.597576   9.88587    7.9265  201.5614   57.5018     4.0524    38.9023   0    0  1 
67415.618548   9.88587    7.9266  201.5615   57.5018     4.0774    38.8532   0    0  1 
67415.639519   9.88587    7.9266  201.5617   57.5018     4.0530    38.9011   0    0  1 
67415.660491   9.88587    7.9266  201.5619   57.5018     4.0512    38.8936   0    0  1 
67415.681462   9.88587    7.9266  201.5620   57.5018     4.0427    38.9039   0    0  1 
67415.702434   9.88587    7.9266  201.5622   57.5017     4.0518    38.8642   0    0  1 
67415.723405   9.88587    7.9266  201.5624   57.5017     4.0439    38.8402   0    0  1 
67415.744377   9.88587    7.9266  201.5625   57.5017     4.0567    38.9679   0    0  1 
67415.765348   9.88587    7.9266  201.5627   57.5017     4.0616    39.1321   0    0  1 
67415.786320   9.88587    7.9266  201.5629   57.5016     4.0476    38.8489   0    0  1 
67415.807291   9.88587    7.9266  201.5630   57.5016     4.0628    38.8815   0    0  1 
67415.828263   9.88587    7.9265  201.5630   57.5016     4.0720    38.8245   0    0  1 
67415.849234   9.88588    7.9265  201.5631   57.5015     4.0512    38.8151   0    0  1 
67415.870206   9.88588    7.9265  201.5633   57.5015     4.0354    38.8811   0    0  1 
67415.891177   9.88588    7.9265  201.5634   57.5015     4.0659    38.8764   0    0  1 
67415.912149   9.88588    7.9265  201.5636   57.5014     4.0500    38.8960   0    0  1 
67415.933120   9.88588    7.9265  201.5637   57.5014     4.0433    38.8854   0    0  1 
67415.954092   9.88588    7.9265  201.5639   57.5014     4.0390    38.8575   0    0  1 
67415.975063   9.88588    7.9265  201.5640   57.5014     4.0390    38.8253   0    0  1 
67415.996035   9.88588    7.9265  201.5642   57.5013     4.0573    38.8944   0    0  1 
67416.017007   9.88588    7.9265  201.5643   57.5013     4.0476    38.9227   0    0  1 
67416.037978   9.88588    7.9265  201.5645   57.5013     4.0549    38.9431   0    0  1 
67416.058950   9.88588    7.9265  201.5646   57.5013     4.0488    38.9384   0    0  1 
67416.079921   9.88588    7.9265  201.5648   57.5012     4.0500    38.8567   0    0  1 
67416.100893   9.88588    7.9265  201.5649   57.5012     4.0512    38.8897   0    0  1 
67416.121864   9.88588    7.9265  201.5651   57.5012     4.0506    38.8210   0    0  1 
67416.142836   9.88588    7.9265  201.5652   57.5012     4.0640    38.8383   0    0  1 
67416.163807   9.88588    7.9265  201.5654   57.5011     4.0506    38.8603   0    0  1 
67416.184779   9.88588    7.9265  201.5655   57.5011     4.0561    38.8771   0    0  1 
67416.205750   9.88588    7.9265  201.5657   57.5011     4.0433    38.8343   0    0  1 
67416.226722   9.88588    7.9265  201.5658   57.5011     4.0598    38.8614   0    0  1 
67416.247693   9.88588    7.9265  201.5660   57.5010     4.0421    38.8406   0    0  1 
67416.268665   9.88588    7.9265  201.5661   57.5010     4.0476    38.8528   0    0  1 
67416.289636   9.88588    7.9265  201.5663   57.5010     4.0622    38.8897   0    0  1 
67416.310608   9.88588    7.9265  201.5664   57.5009     4.0518    38.8351   0    0  1 
67416.331579   9.88588    7.9265  201.5666   57.5009     4.0585    38.8803   0    0  1 
67416.352551   9.88588    7.9265  201.5667   57.5009     4.0433    38.8603   0    0  1 
67416.373522   9.88588    7.9265  201.5669   57.5009     4.0537    38.8638   0    0  1 
67416.394494   9.88589    7.9265  201.5670   57.5008     4.0482    38.8760   0    0  1 
67416.415465   9.88589    7.9265  201.5672   57.5008     4.0598    38.8049   0    0  1 
67416.436437   9.88589    7.9265  201.5673   57.5008     4.0537    38.9039   0    0  1 
67416.457408   9.88589    7.9265  201.5675   57.5008     4.0573    38.8394   0    0  1 
67416.478380   9.88589    7.9265  201.5676   57.5007     4.0701    38.8343   0    0  1 
67416.499352   9.88589    7.9264  201.5674   57.5007     4.0622    38.8599   0    0  1 
67416.520323   9.88589    7.9264  201.5676   57.5007     4.0457    38.9969   0    0  1 
67416.541295   9.88589    7.9264  201.5677   57.5007     4.0634    38.8646   0    0  1 
67416.562266   9.88589    7.9264  201.5678   57.5006     4.0524    38.8473   0    0  1 
67416.583238   9.88589    7.9264  201.5680   57.5006     4.0506    38.8225   0    0  1 
67416.604209   9.88590    7.9264  201.5681   57.5006     4.0549    38.8512   0    0  1 
67416.625181   9.88590    7.9264  201.5682   57.5006     4.0445    38.9042   0    0  1 
67416.646152   9.88590    7.9264  201.5684   57.5005     4.0616    38.8917   0    0  1 
67416.667124   9.88590    7.9264  201.5685   57.5005     4.0622    38.8819   0    0  1 
67416.688095   9.88590    7.9264  201.5686   57.5005     4.0628    38.8469   0    0  1 
67416.709067   9.88590    7.9264  201.5687   57.5005     4.0506    38.8775   0    0  1 
67416.730038   9.88590    7.9264  201.5689   57.5004     4.0646    38.8811   0    0  1 
67416.751010   9.88590    7.9264  201.5690   57.5004     4.0470    38.8320   0    0  1 
67416.771981   9.88590    7.9264  201.5691   57.5004     4.0646    38.8826   0    0  0 
67416.792953   9.88590    7.9264  201.5693   57.5003     4.0665    38.9011   0    0  0 
67416.813924   9.88590    7.9264  201.5694   57.5003     4.0585    38.8339   0    0  0 
67416.834896   9.88590    7.9264  201.5695   57.5003     4.0451    38.8363   0    0  0 
67416.855867   9.88590    7.9264  201.5697   57.5003     4.0500    38.8921   0    0  0 
67416.876839   9.88590    7.9264  201.5698   57.5002     4.0488    38.8771   0    0  0 
67416.897810   9.88590    7.9263  201.5699   57.5002     4.0366    38.8277   0    0  0 
67416.918782   9.88591    7.9263  201.5701   57.5002     4.0335    38.8296   0    0  0 
67416.939753   9.88591    7.9263  201.5702   57.5002     4.0518    38.9262   0    0  0 
67416.960725   9.88591    7.9263  201.5703   57.5001     4.0537    38.9031   0    0  0 
67416.981697   9.88591    7.9263  201.5704   57.5001     4.0518    38.9388   0    0  0 
67417.002668   9.88591    7.9263  201.5706   57.5001     4.0530    38.8964   0    0  0 
67417.023640   9.88593    7.9264  201.5703   57.5002     4.0488    38.8567   0    0  0 
67417.044611   9.88593    7.9264  201.5704   57.5002     4.0537    38.8559   0    0  0 
67417.065583   9.88593    7.9264  201.5706   57.5001     4.0470    38.8186   0    0  0 
67417.086554   9.88593    7.9264  201.5707   57.5001     4.0555    38.8438   0    0  0 
67417.107526   9.88594    7.9264  201.5708   57.5001     4.0506    38.8461   0    0  0 
67417.128497   9.88594    7.9264  201.5709   57.5001     4.0579    38.8485   0    0  0 
67417.149469   9.88594    7.9264  201.5710   57.5001     4.0549    38.8277   0    0  0 
67417.170440   9.88594    7.9264  201.5711   57.5001     4.0427    38.9039   0    0  0 
67417.191412   9.88594    7.9264  201.5712   57.5000     4.0500    38.8646   0    0  0 
67417.212383   9.88595    7.9264  201.5713   57.5000     4.0598    38.8826   0    0  0 
67417.233355   9.88595    7.9264  201.5714   57.5000     4.0634    38.8732   0    0  0 
67417.254326   9.88595    7.9264  201.5715   57.5000     4.0530    38.8705   0    0  0 
67417.275298   9.88595    7.9264  201.5716   57.5000     4.0500    38.9007   0    0  0 
67417.296269   9.88595    7.9264  201.5717   57.5000     4.0476    38.8528   0    0  0 
67417.317241   9.88596    7.9264  201.5718   57.4999     4.0433    38.8634   0    0  0 
67417.338212   9.88596    7.9264  201.5719   57.4999     4.0573    38.8740   0    0  0 
67417.359184   9.88596    7.9264  201.5720   57.4999     4.0488    38.9510   0    0  0 
67417.380155   9.88596    7.9264  201.5721   57.4999     4.0567    38.9286   0    0  0 
67417.401127   9.88596    7.9264  201.5722   57.4999     4.0604    38.8987   0    0  0 
67417.422098   9.88597    7.9264  201.5723   57.4998     4.0494    38.8610   0    0  0 
67417.443070   9.88597    7.9264  201.5724   57.4998     4.0543    38.8917   0    0  0 
67417.464042   9.88597    7.9264  201.5725   57.4998     4.0537    38.8976   0    0  0 
67417.485013   9.88597    7.9264  201.5726   57.4998     4.0598    38.8481   0    0  0 
67417.505985   9.88597    7.9264  201.5727   57.4998     4.0415    38.8551   0    0  0 
67417.526956   9.88598    7.9264  201.5728   57.4998     4.0567    38.9168   0    0  0 
67417.547928   9.88598    7.9264  201.5729   57.4997     4.0396    38.8453   0    0  0 
67417.568899   9.88598    7.9264  201.5730   57.4997     4.0628    38.8760   0    0  0 
67417.589871   9.88598    7.9264  201.5731   57.4997     4.0524    38.8874   0    0  0 
67417.610842   9.88598    7.9264  201.5732   57.4997     4.0512    38.9313   0    0  0 
67417.631814   9.88599    7.9264  201.5733   57.4997     4.0506    38.8500   0    0  0 
67417.652785   9.88599    7.9264  201.5734   57.4997     4.0506    38.8658   0    0  0 
67417.673757   9.88599    7.9264  201.5735   57.4996     4.0488    38.8418   0    0  0 
67417.694728   9.88599    7.9264  201.5736   57.4996     4.0665    38.8815   0    0  0 
67417.715700   9.88599    7.9264  201.5737   57.4996     4.0598    38.8190   0    0  0 
67417.736671   9.88600    7.9264  201.5739   57.4996     4.0598    38.8599   0    0  0 
67417.757643   9.88600    7.9264  201.5740   57.4996     4.0561    38.8245   0    0  0 
67417.778614   9.88600    7.9264  201.5741   57.4996     4.0604    38.8469   0    0  0 
67417.799586   9.88600    7.9264  201.5742   57.4995     4.0689    38.8548   0    0  0 
67417.820557   9.88601    7.9264  201.5743   57.4995     4.0665    38.8343   0    0  0 
67417.841529   9.88601    7.9264  201.5744   57.4995     4.0506    38.8917   0    0  0 
67417.862500   9.88601    7.9264  201.5745   57.4995     4.0488    38.8889   0    0  0 
67417.883472   9.88601    7.9264  201.5746   57.4995     4.0494    38.8783   0    0  0 
67417.904443   9.88601    7.9264  201.5747   57.4995     4.0561    38.8693   0    0  0 
67417.925415   9.88602    7.9264  201.5748   57.4994     4.0579    38.9152   0    0  0 
67417.946387   9.88602    7.9264  201.5749   57.4994     4.0494    38.8540   0    0  0 
67417.967358   9.88610    7.9273  201.5731   57.5007     4.0488    38.9235   0    0  0 
67417.988330   9.88611    7.9273  201.5731   57.5007     4.0555    38.8257   0    0  0 
67418.009301   9.88611    7.9274  201.5732   57.5007     4.0439    38.7844   0    0  0 
67418.030273   9.88612    7.9274  201.5732   57.5007     4.0354    38.8787   0    0  0 
67418.051244   9.88612    7.9274  201.5732   57.5008     4.0451    38.8929   0    0  0 
67418.072216   9.88613    7.9274  201.5733   57.5008     4.0427    38.8701   0    0  0 
67418.093187   9.88613    7.9275  201.5733   57.5008     4.0476    38.8473   0    0  0 
67418.114159   9.88614    7.9275  201.5733   57.5008     4.0573    38.8693   0    0  0 
67418.135130   9.88614    7.9275  201.5734   57.5009     4.0451    38.8834   0    0  0 
67418.156102   9.88614    7.9276  201.5734   57.5009     4.0463    38.8646   0    0  0 
67418.177073   9.88615    7.9276  201.5735   57.5009     4.0543    38.8791   0    0  0 
67418.198045   9.88615    7.9276  201.5735   57.5009     4.0634    38.8984   0    0  0 
67418.219016   9.88616    7.9277  201.5735   57.5010     4.0500    38.8858   0    0  0 
67418.239988   9.88616    7.9277  201.5736   57.5010     4.0573    38.8954   0    0  0 
67418.340651   9.88619    7.9278  201.5738   57.5011     4.0605    38.9519  -1    0  0 
67418.441314   9.88607    7.9276  201.5777   57.5002     4.0614    42.5967   1    0  0 
67418.541977   9.88606    7.9277  201.5787   57.5002     4.0595    49.3638   1    0  0 
67418.642640   9.88606    7.9278  201.5796   57.5001     4.0597    43.2741   1    0  0 
67418.743304   9.88605    7.9279  201.5805   57.5000     4.0672    45.0137   1    0  0 
67418.843967   9.88605    7.9280  201.5814   57.5000     4.0701    49.3659   1    0  0 
67418.944630   9.88604    7.9280  201.5823   57.4999     4.0647    49.3857   1    0  0 
67419.045294   9.88604    7.9281  201.5832   57.4998     4.0649    49.3231   1    0  0 
67419.145957   9.88615    7.9279  201.5810   57.4999     4.0573    49.3272   1    0  0 
67419.246620   9.88618    7.9278  201.5810   57.4999     4.0655    49.2656   1    0  0 
67419.347284   9.88621    7.9278  201.5810   57.4999     4.0563    49.3637   1    0  0 
67419.447947   9.88624    7.9278  201.5810   57.4999     4.0704    49.3211   1    0  0 
67419.548610   9.88626    7.9278  201.5810   57.4999     4.0643    49.3674   1    0  0 
67419.649273   9.88629    7.9278  201.5810   57.4998     4.0572    49.3741   1    0  0 
67419.749937   9.88632    7.9278  201.5810   57.4998     4.0603    49.3462   1    0  0 
67419.850600   9.88635    7.9279  201.5810   57.5000     4.0671    49.3921   1    0  0 
67419.951263   9.88638    7.9279  201.5810   57.5000     4.0704    49.3643   1    0  0 
67420.051927   9.88640    7.9279  201.5810   57.5000     4.0644    49.3778   1    0  0 
67420.152590   9.88643    7.9279  201.5810   57.5000     4.0640    49.3794   1    0  0 
67420.253253   9.88646    7.9280  201.5810   57.5000     4.0622    49.3556   1    0  0 
67420.353917   9.88649    7.9279  201.5810   57.5000     4.0612    49.4134   1    0  0 
67420.454580   9.88652    7.9279  201.5810   57.5000     4.0617    49.3393   1    0  0 
67420.555243   9.88654    7.9279  201.5810   57.5000     4.0563    49.3670   1    0  0 
67420.655907   9.88657    7.9279  201.5810   57.5000     4.0659    49.3641   1    0  0 
67420.756570   9.88660    7.9279  201.5810   57.5000     4.0671    49.3743   1    0  0 
67420.857233   9.88663    7.9279  201.5810   57.5000     4.0624    49.3649   1    0  0 
67420.957896   9.88666    7.9279  201.5810   57.5000     4.0636    49.3400   1    0  0 
67421.058560   9.88668    7.9279  201.5810   57.4999     4.0602    49.3671   1    0  0 
67421.159223   9.88671    7.9278  201.5810   57.4999     4.0647    49.3510   1    0  0 
67421.259886   9.88673    7.9278  201.5810   57.4999     4.0694    49.3308   1    0  0 
67421.360550   9.88676    7.9278  201.5810   57.4999     4.0551    49.3288   1    0  0 
67421.461213   9.88679    7.9278  201.5810   57.4999     4.0564    49.3501   1    0  0 
67421.561876   9.88682    7.9279  201.5810   57.5000     4.0654    49.3485   1    0  0 
67421.662540   9.88685    7.9279  201.5810   57.5000     4.0654    49.4578   1    0  0 
67421.763203   9.88688    7.9279  201.5810   57.5000     4.0572    49.3728   1    0  0 
67421.863866   9.88691    7.9279  201.5810   57.5000     4.0626    40.8536   0    0  0 
67421.964529   9.88694    7.9280  201.5810   57.5000     4.0537    38.9399   0    0  0 
67422.065193   9.88697    7.9280  201.5810   57.5000     4.0591    38.9170   0    0  0 
67422.165856   9.88700    7.9280  201.5810   57.5001     4.0691    38.8929   0    0  0 
67422.266519   9.88703    7.9280  201.5810   57.5001     4.0678    38.8996   0    0  0 
67422.367183   9.88705    7.9278  201.5810   57.4999     4.0589    38.9192   0    0  0 
67422.467846   9.88707    7.9278  201.5810   57.4999     4.0662    38.9900   0    0  0 
67422.568509   9.88710    7.9278  201.5810   57.4999     4.0654    38.9897   0    0  0 
67422.669173   9.88713    7.9278  201.5810   57.4999     4.0598    38.9712   0    0  0 
67422.769836   9.88716    7.9278  201.5810   57.4998     4.0610    38.9586   0    0  0 
67422.870499   9.88718    7.9278  201.5810   57.4999     4.0565    38.9275   0    0  0 
67422.971163   9.88721    7.9278  201.5810   57.4999     4.0676    38.9667   0    0  0 
67423.071826   9.88724    7.9278  201.5810   57.4999     4.0617    38.9387   0    0  0 
67423.172489   9.88726    7.9278  201.5810   57.4999     4.0564    38.9438   0    0  0 
67423.273152   9.88729    7.9278  201.5810   57.4999     4.0545    38.9306   0    0  0 
67423.373816   9.88732    7.9278  201.5810   57.4999     4.0642    38.9559   0    0  0 
67423.474479   9.88734    7.9278  201.5810   57.4999     4.0636    39.0075   0    0  0 
67423.575142   9.88738    7.9278  201.5810   57.4999     4.0642    38.9887   0    0  0 
67423.675806   9.88741    7.9278  201.5810   57.4999     4.0616    39.0019   0    0  0 
67423.776469   9.88744    7.9278  201.5810   57.4999     4.0605    39.0480   0    0  0 
67423.877132   9.88747    7.9278  201.5810   57.4999     4.0591    38.9730   0    0  0 
67423.977796   9.88750    7.9278  201.5810   57.4999     4.0556    38.9814   0    0  0 
67424.078459   9.88752    7.9278  201.5810   57.4999     4.0607    38.9442   0    0  0 
67424.179122   9.88755    7.9278  201.5810   57.4999     4.0608    38.9520   0    0  0 
67424.279785   9.88758    7.9278  201.5810   57.4999     4.0587    38.9521   0    0  0 
67424.380449   9.88761    7.9278  201.5810   57.4999     4.0564    38.9416   0    0  0 
67424.481112   9.88764    7.9278  201.5810   57.4999     4.0550    38.9983   0    0  0 
67424.581775   9.88766    7.9278  201.5810   57.4999     4.0583    38.9234   0    0  0 
67424.682439   9.88769    7.9278  201.5810   57.4999     4.0625    38.9472   0    0  0 
67424.783102   9.88772    7.9278  201.5810   57.4999     4.0586    38.9206   0    0  0 
67424.883765   9.88775    7.9278  201.5810   57.4999     4.0578    38.9356   0    0  0 
67424.984429   9.88777    7.9278  201.5810   57.4999     4.0559    38.9830   0    0  0 
67425.085092   9.88780    7.9278  201.5810   57.4999     4.0565    38.9242   0    0  0 
67425.185755   9.88783    7.9278  201.5810   57.4999     4.0591    38.9548   0    0  0 
67425.286419   9.88785    7.9278  201.5810   57.4999     4.0577    38.9217   0    0  0 
67425.387082   9.88788    7.9278  201.5810   57.4999     4.0602    38.9580   0    0  0 
67425.487745   9.88791    7.9278  201.5810   57.4999     4.0546    38.9871   0    0  0 
67425.588408   9.88794    7.9278  201.5810   57.4999     4.0619    38.9566   0    0  0 
67425.689072   9.88796    7.9278  201.5810   57.4999     4.0624    38.9610   0    0  0 
67425.789735   9.88799    7.9278  201.5810   57.4999     4.0570    39.0019   0    0  0 
67425.890398   9.88802    7.9278  201.5810   57.4999     4.0577    38.9310   0    0  0 
67425.991062   9.88805    7.9278  201.5810   57.4999     4.0559    39.0768   0    0  0 
67426.091724   9.88808    7.9279  201.5810   57.4999     4.0602    39.0074   0    0  0 
67426.192388   9.88811    7.9279  201.5810   57.4999     4.0597    38.9442   0    0  0 
67426.293051   9.88814    7.9279  201.5810   57.4999     4.0620    38.9901   0    0  0 
67426.393714   9.88817    7.9279  201.5810   57.4999     4.0591    38.9407   0    0  0 
67426.494378   9.88820    7.9279  201.5810   57.4999     4.0631    38.9823   0    0  0 
67426.595041   9.88823    7.9279  201.5810   57.4999     4.0608    38.9204   0    0  0 
67426.695704   9.88825    7.9279  201.5810   57.4999     4.0583    38.9371   0    0  0 